#   1 NUMBER                 Running object number                                     
#   2 FLUX_ISO               Isophotal flux                                             [count]
#   3 FLUXERR_ISO            RMS error for isophotal flux                               [count]
#   4 FLUX_AUTO              Flux within a Kron-like elliptical aperture                [count]
#   5 FLUXERR_AUTO           RMS error for AUTO flux                                    [count]
#   6 FLUX_BEST              Best of FLUX_AUTO and FLUX_ISOCOR                          [count]
#   7 FLUXERR_BEST           RMS error for BEST flux                                    [count]
#   8 BACKGROUND             Background at centroid position                            [count]
#   9 X_IMAGE                Object position along x                                    [pixel]
#  10 Y_IMAGE                Object position along y                                    [pixel]
#  11 ALPHA_SKY              Right ascension of barycenter (native)                     [deg]
#  12 DELTA_SKY              Declination of barycenter (native)                         [deg]
#  13 ALPHA_J2000            Right ascension of barycenter (J2000)                      [deg]
#  14 DELTA_J2000            Declination of barycenter (J2000)                          [deg]
         1 0.0002865981 5.081747e-05  0.003278171 0.0002156003  0.003278171 0.0002156003 -6.009018e-06    586.3292     14.3296  65.8159994  -1.3490368  65.8159994  -1.3490368
         2  0.001959144 0.0001278878  0.007561624 0.0003979801  0.007561624 0.0003979801 -1.270297e-06   1120.3536     17.9391  65.8100642  -1.3489966  65.8100642  -1.3489966
         3  0.001486729 0.0001136313   0.01016406 0.0004838791   0.01016406 0.0004838791 6.121509e-06    709.6797     26.4601  65.8146285  -1.3489020  65.8146285  -1.3489020
         4 0.0004080928 5.867896e-05  0.003341208 0.0002557757  0.003341208 0.0002557757 -8.294959e-06    871.5037     24.5087  65.8128299  -1.3489237  65.8128299  -1.3489237
         5 0.0004584041 6.560508e-05  0.006686969 0.0003213979  0.006686969 0.0003213979  -2.8895e-06   1035.5909     34.2102  65.8110062  -1.3488159  65.8110062  -1.3488159
         6 0.0009253477 8.801845e-05  0.007387816 0.0003757287  0.007387816 0.0003757287 -2.902653e-06    396.3430     40.1243  65.8181110  -1.3487501  65.8181110  -1.3487501
         7  0.000493743 6.560508e-05  0.004703331 0.0002829397  0.004703331 0.0002829397 1.687033e-06    824.4000     51.8134  65.8133535  -1.3486203  65.8133535  -1.3486203
         8 0.0006820817 7.762497e-05  0.006527469 0.0003383594  0.006527469 0.0003383594 -9.474006e-07    587.0015     52.7097  65.8159920  -1.3486103  65.8159920  -1.3486103
         9  0.001809409 0.0001209698   0.01179438  0.000509021   0.01179438  0.000509021 3.277573e-06    631.1658     58.2704  65.8155011  -1.3485485  65.8155011  -1.3485485
        10  0.002133381 0.0001344504   0.01383472 0.0005726838   0.01383472 0.0005726838 -3.059456e-06    527.6668     72.4551  65.8166514  -1.3483909  65.8166514  -1.3483909
        11 0.0005979861 7.186676e-05  0.005132381 0.0003077151  0.005132381 0.0003077151 -1.262911e-06   1120.5002     67.0054  65.8100626  -1.3484515  65.8100626  -1.3484515
        12  0.003201227 0.0001633553   0.01088309 0.0005013533   0.01088309 0.0005013533 -3.059456e-06    525.2912     84.0172  65.8166778  -1.3482624  65.8166778  -1.3482624
        13 0.0005021994 6.560508e-05  0.005058885 0.0002859659  0.005058885 0.0002859659 -2.798433e-06    287.8127     72.3910  65.8193172  -1.3483916  65.8193172  -1.3483916
        14 0.0006986118 7.762497e-05  0.005035929 0.0003187084  0.005035929 0.0003187084 -3.418814e-08    940.2899     84.4309  65.8120654  -1.3482578  65.8120654  -1.3482578
        15 0.0006955037 7.762497e-05  0.004201347 0.0003253906  0.004201347 0.0003253906 -1.236635e-06    303.7181     89.1456  65.8191404  -1.3482055  65.8191404  -1.3482055
        16 0.0002976713 5.081747e-05  0.003821896  0.000240154  0.003821896  0.000240154  9.28317e-07    212.0021     97.0000  65.8201598  -1.3481182  65.8201598  -1.3481182
        17  0.001025568 9.277959e-05  0.007435368 0.0004022827  0.007435368 0.0004022827 -2.042816e-06    382.9089    115.4135  65.8182603  -1.3479136  65.8182603  -1.3479136
        18 0.0002953725 5.081747e-05  0.002637267 0.0002032699  0.002637267 0.0002032699 2.078223e-06    826.3333    113.6733  65.8133320  -1.3479329  65.8133320  -1.3479329
        19 0.0004301957 5.867896e-05  0.002269599 0.0002365425  0.002269599 0.0002365425 1.911615e-06    845.9998    114.2473  65.8131134  -1.3479266  65.8131134  -1.3479266
        20  0.001510281 0.0001136313  0.009545932 0.0004138843  0.009545932 0.0004138843 -2.000536e-06    493.3728    124.0883  65.8170326  -1.3478172  65.8170326  -1.3478172
        21  0.004800145   0.00019899   0.01652507 0.0007059789   0.01652507 0.0007059789 -5.088044e-06    412.9158    144.1942  65.8179268  -1.3475938  65.8179268  -1.3475938
        22  0.001246022  0.000105785  0.009385458 0.0003745814  0.009385458 0.0003745814 8.759007e-07   1053.8730    131.1314  65.8108031  -1.3477390  65.8108031  -1.3477390
        23 0.0003892511 5.867896e-05  0.004232569 0.0002624203  0.004232569 0.0002624203 3.904317e-06    274.5061    134.4923  65.8194651  -1.3477016  65.8194651  -1.3477016
        24  0.003850831 0.0001784651   0.01116365 0.0006278923   0.01116365 0.0006278923 3.858354e-06    573.6115    143.2283  65.8161408  -1.3476045  65.8161408  -1.3476045
        25   0.00556471 0.0002095258   0.02933471 0.0007016984   0.02933471 0.0007016984 -2.373758e-06   1134.4172    153.6386  65.8099079  -1.3474889  65.8099079  -1.3474889
        26 0.0002943851 5.081747e-05  0.002621961 0.0002032699  0.002621961 0.0002032699 -4.730408e-06     45.6673    137.3316  65.8220084  -1.3476701  65.8220084  -1.3476701
        27 0.0004727098 6.560508e-05  0.006520298 0.0003063132  0.006520298 0.0003063132 9.439576e-06    673.0026    141.0033  65.8150361  -1.3476293  65.8150361  -1.3476293
        28 0.0004029277 5.867896e-05  0.004910799 0.0002624203  0.004910799 0.0002624203 9.008262e-06    679.4979    139.4989  65.8149639  -1.3476460  65.8149639  -1.3476460
        29 0.0007871573 8.298459e-05  0.009173775 0.0003734306  0.009173775 0.0003734306 -3.144967e-06   1190.4972    152.4984  65.8092846  -1.3475015  65.8092846  -1.3475015
        30 0.0007872428 8.298459e-05  0.009791868 0.0003802832  0.009791868 0.0003802832 9.119724e-06    667.2491    165.8848  65.8151001  -1.3473528  65.8151001  -1.3473528
        31 0.0009906122 9.277959e-05  0.008298115 0.0004033512  0.008298115 0.0004033512  4.65656e-06    310.0177    169.8191  65.8190704  -1.3473091  65.8190704  -1.3473091
        32  0.001210892 0.0001016349  0.006041672 0.0003947224  0.006041672 0.0003947224 7.946851e-06    681.5773    171.2567  65.8149408  -1.3472931  65.8149408  -1.3472931
        33  0.001409766  0.000105785   0.00857354  0.000424156   0.00857354  0.000424156 8.523045e-06    637.6324    173.3658  65.8154292  -1.3472697  65.8154292  -1.3472697
        34 0.0002891008 5.081747e-05  0.003070849 0.0002156003  0.003070849 0.0002156003 -4.690417e-06    425.6619    169.6720  65.8177851  -1.3473107  65.8177851  -1.3473107
        35 0.0005370679 6.560508e-05   0.00285029 0.0002672954   0.00285029 0.0002672954 7.892633e-06    605.5959    178.2238  65.8157853  -1.3472157  65.8157853  -1.3472157
        36 0.0009530078 9.277959e-05  0.006514121 0.0003802832  0.006514121 0.0003802832   3.4068e-06    319.5009    188.0100  65.8189650  -1.3471070  65.8189650  -1.3471070
        37  0.001091648 9.730805e-05  0.007930792 0.0004117993  0.007930792 0.0004117993 1.116563e-06    870.0040   1024.9952  65.8128466  -1.3378071  65.8128466  -1.3378071
        38   0.00141106  0.000105785  0.006079715 0.0004107527  0.006079715 0.0004107527 4.531187e-06    595.9859    974.9980  65.8158921  -1.3383627  65.8158921  -1.3383627
        39 0.0008258141 8.298459e-05  0.005253077 0.0003545103  0.005253077 0.0003545103 -5.672237e-06   1136.5001    972.4940  65.8098848  -1.3383905  65.8098848  -1.3383905
        40 0.0007100927 7.762497e-05  0.006278065 0.0003345216  0.006278065 0.0003345216 4.314995e-06    174.7105    971.0015  65.8205742  -1.3384071  65.8205742  -1.3384071
        41  0.001675487 0.0001173579  0.009761806 0.0004758064  0.009761806 0.0004758064 1.324195e-06    690.8010    962.6181  65.8148383  -1.3385002  65.8148383  -1.3385002
        42  0.001004673 9.277959e-05  0.006850021 0.0003936305  0.006850021 0.0003936305 -5.34028e-06   1103.5022    957.8017  65.8102515  -1.3385537  65.8102515  -1.3385537
        43  0.000581293 7.186676e-05  0.004949789 0.0003077151  0.004949789 0.0003077151 8.189282e-07    992.0005    954.5034  65.8114907  -1.3385904  65.8114907  -1.3385904
        44 0.0005774571 7.186676e-05  0.006369323  0.000317355  0.006369323  0.000317355 1.024011e-06    883.8403    948.1667  65.8126928  -1.3386608  65.8126928  -1.3386608
        45 0.0009903526 9.277959e-05  0.004635099 0.0003734306  0.004635099 0.0003734306 3.722756e-06    608.8949    941.7919  65.8157486  -1.3387316  65.8157486  -1.3387316
        46 0.0007149995 7.762497e-05  0.005128594 0.0003319384  0.005128594 0.0003319384 2.761463e-06    583.2839    938.9997  65.8160333  -1.3387626  65.8160333  -1.3387626
        47 0.0003932219 5.867896e-05  0.004150529 0.0002557757  0.004150529 0.0002557757 1.188049e-07    802.5067    934.4950  65.8135968  -1.3388127  65.8135968  -1.3388127
        48  0.001114665 9.730805e-05  0.007657699 0.0004012114  0.007657699 0.0004012114 3.307779e-06    652.9865    931.0066  65.8152586  -1.3388515  65.8152586  -1.3388515
        49 0.0002961099 5.081747e-05  0.003737547  0.000240154  0.003737547  0.000240154 -5.758415e-07    522.0079    932.0000  65.8167143  -1.3388404  65.8167143  -1.3388404
        50 0.0003992405 5.867896e-05  0.003492043 0.0002656803  0.003492043 0.0002656803 -1.735786e-07    938.9948    918.7535  65.8120799  -1.3389876  65.8120799  -1.3389876
        51 0.0009790962 9.277959e-05  0.009931184 0.0004022827  0.009931184 0.0004022827 -3.941581e-06    466.1844    908.9997  65.8173347  -1.3390960  65.8173347  -1.3390960
        52  0.002271454 0.0001344504   0.01163748 0.0005386013   0.01163748 0.0005386013 8.088483e-07    818.1711    903.0185  65.8134227  -1.3391624  65.8134227  -1.3391624
        53  0.001768669 0.0001209698  0.006855682 0.0004468857  0.006855682 0.0004468857 -1.694084e-06    575.9797    903.3432  65.8161145  -1.3391588  65.8161145  -1.3391588
        54   0.01474403 0.0003508492   0.05700625  0.001282911   0.05700625  0.001282911 -2.966291e-06    373.4779    891.6769  65.8183651  -1.3392884  65.8183651  -1.3392884
        55 0.0003931051 5.867896e-05  0.003899835 0.0002624203  0.003899835 0.0002624203 3.540745e-06    702.4950    901.4939  65.8147083  -1.3391794  65.8147083  -1.3391794
        56  0.001157981 9.730805e-05  0.006006147 0.0003881249  0.006006147 0.0003881249 8.009548e-07    302.6461    898.5356  65.8191523  -1.3392122  65.8191523  -1.3392122
        57  0.001069274 9.730805e-05  0.006333804 0.0003187084  0.006333804 0.0003187084   2.0458e-06    798.1627    877.8354  65.8136451  -1.3394422  65.8136451  -1.3394422
        58  0.001747134 0.0001244769  0.009864916 0.0005013533  0.009864916 0.0005013533 2.935834e-06    212.0441    877.8240  65.8201593  -1.3394424  65.8201593  -1.3394424
        59 0.0006231761 7.186676e-05  0.005149395 0.0002963142  0.005149395 0.0002963142   3.1657e-06    695.5057    862.9879  65.8147860  -1.3396072  65.8147860  -1.3396072
        60  0.001128478 9.730805e-05  0.008081211 0.0004075971  0.008081211 0.0004075971 -7.262531e-06    483.6483    843.8179  65.8171406  -1.3398202  65.8171406  -1.3398202
        61 0.0009601387 9.277959e-05  0.007722786 0.0004022827  0.007722786 0.0004022827 -5.950293e-06    422.2064    841.5010  65.8178235  -1.3398460  65.8178235  -1.3398460
        62 0.0006155936 7.186676e-05  0.003131123 0.0002783388  0.003131123 0.0002783388 -3.873693e-06    664.5020    838.5016  65.8151306  -1.3398793  65.8151306  -1.3398793
        63  0.002581462 0.0001496026   0.01471776  0.000528925   0.01471776  0.000528925 1.895268e-06    723.9052    829.0576  65.8144704  -1.3399842  65.8144704  -1.3399842
        64 0.0004015027 5.867896e-05  0.003989468 0.0002557757  0.003989468 0.0002557757 -5.408171e-06    667.5008    830.4951  65.8150973  -1.3399682  65.8150973  -1.3399682
        65  0.001633297 0.0001173579  0.006877073 0.0004400922  0.006877073 0.0004400922 -7.163727e-06    465.1927    828.6806  65.8173458  -1.3399884  65.8173458  -1.3399884
        66  0.001181826 0.0001016349  0.009333032 0.0004497657  0.009333032 0.0004497657   -2.602e-06    906.9261    821.0023  65.8124363  -1.3400737  65.8124363  -1.3400737
        67 0.0003933673 5.867896e-05  0.003534043 0.0002557757  0.003534043 0.0002557757 -8.35814e-07   1018.9963    813.5024  65.8111907  -1.3401571  65.8111907  -1.3401571
        68  0.001410611 0.0001097783  0.005042791 0.0003006402  0.005042791 0.0003006402 -1.119199e-05    598.9892    812.5065  65.8158587  -1.3401681  65.8158587  -1.3401681
        69 0.0002874403 5.081747e-05   0.00290323 0.0002156003   0.00290323 0.0002156003 -1.16446e-05    622.3311    804.3331  65.8155993  -1.3402589  65.8155993  -1.3402589
        70 0.0004910789 6.560508e-05  0.004152642 0.0002844568  0.004152642 0.0002844568 -1.198971e-05    550.1809    788.6083  65.8164012  -1.3404337  65.8164012  -1.3404337
        71  0.001931156 0.0001312102   0.01416195 0.0005816325   0.01416195 0.0005816325  3.83798e-06   1046.0015    778.5331  65.8108906  -1.3405456  65.8108906  -1.3405456
        72 0.0002822054 5.081747e-05  0.003702725 0.0002156003  0.003702725 0.0002156003 -9.703864e-07    986.3345    773.6712  65.8115537  -1.3405996  65.8115537  -1.3405996
        73 0.0007598388 7.762497e-05  0.003360281 0.0002859659  0.003360281 0.0002859659 -1.166917e-05    591.0057    768.9825  65.8159475  -1.3406517  65.8159475  -1.3406517
        74  0.006890217 0.0002454717   0.03333375  0.000829327   0.03333375  0.000829327  1.23565e-06    176.5386    765.6848  65.8205539  -1.3406884  65.8205539  -1.3406884
        75  0.002637842 0.0001496026   0.01392609 0.0004996334   0.01392609 0.0004996334 -1.042553e-05    528.5291    752.1575  65.8166418  -1.3408387  65.8166418  -1.3408387
        76  0.001225338 0.0001016349   0.01450703 0.0004629692   0.01450703 0.0004629692 -1.058059e-05    533.3306    745.7397  65.8165885  -1.3409100  65.8165885  -1.3409100
        77  0.000799184 8.298459e-05  0.006291015 0.0003532941  0.006291015 0.0003532941 -4.004411e-06   1188.8744    740.8679  65.8093026  -1.3409641  65.8093026  -1.3409641
        78 0.0007259569 7.762497e-05   0.00456082 0.0003240652   0.00456082 0.0003240652 1.749341e-06    160.4209    737.7124  65.8207330  -1.3409992  65.8207330  -1.3409992
        79  0.001004438 9.277959e-05  0.008951312 0.0004065398  0.008951312 0.0004065398 -6.404333e-06    713.5026    734.7906  65.8145860  -1.3410316  65.8145860  -1.3410316
        80  0.005450985 0.0002011413     0.013213 0.0006625788     0.013213 0.0006625788 -9.419352e-06    593.7236    726.4110  65.8159172  -1.3411247  65.8159172  -1.3411247
        81  0.004750189 0.0002032699   0.02429276 0.0006786242   0.02429276 0.0006786242 -5.864498e-06    859.5811    721.0081  65.8129625  -1.3411848  65.8129625  -1.3411848
        82  0.001260133 9.730805e-05  0.005291063 0.0003569302  0.005291063 0.0003569302 -8.363488e-06    602.9911    718.9873  65.8158142  -1.3412072  65.8158142  -1.3412072
        83  0.003907494 0.0001710771   0.02383047 0.0006998558   0.02383047 0.0006998558 -4.102143e-06    420.8049    717.7644  65.8178391  -1.3412208  65.8178391  -1.3412208
        84 0.0004011027 5.867896e-05  0.004437462 0.0002591193  0.004437462 0.0002591193 -6.877204e-06    521.4971    717.5007  65.8167200  -1.3412237  65.8167200  -1.3412237
        85  0.004245833 0.0001855592   0.01167977 0.0006230756   0.01167977 0.0006230756 -6.356588e-06    630.7829    711.7050  65.8155054  -1.3412881  65.8155054  -1.3412881
        86 0.0008404407 8.298459e-05  0.005643464 0.0003434098  0.005643464 0.0003434098 -4.981737e-06    786.8782    706.8800  65.8137705  -1.3413417  65.8137705  -1.3413417
        87 0.0006134541 7.186676e-05  0.004599887 0.0003020685  0.004599887 0.0003020685 -4.798786e-06    841.5058    699.9974  65.8131634  -1.3414182  65.8131634  -1.3414182
        88 0.0008143223 8.298459e-05  0.006525645 0.0003459074  0.006525645 0.0003459074 -2.636989e-06    473.4816    695.5063  65.8172536  -1.3414681  65.8172536  -1.3414681
        89 0.0005966179 7.186676e-05  0.005517095  0.000311883  0.005517095  0.000311883 -3.85676e-07    903.8154    689.8282  65.8124708  -1.3415312  65.8124708  -1.3415312
        90  0.002540355 0.0001437335    0.0200233 0.0006012805    0.0200233 0.0006012805 -1.727249e-06    468.8317    687.9606  65.8173053  -1.3415520  65.8173053  -1.3415520
        91 0.0003116786 5.081747e-05   0.00254806 0.0002032699   0.00254806 0.0002032699 -5.538408e-06    740.6670    684.3247  65.8142841  -1.3415924  65.8142841  -1.3415924
        92 0.0006333981 7.186676e-05  0.004502878  0.000287467  0.004502878  0.000287467 -2.873877e-06    620.5085    681.9886  65.8156196  -1.3416183  65.8156196  -1.3416183
        93 0.0003151747 5.081747e-05  0.002275747 0.0002032699  0.002275747 0.0002032699 -2.761072e-06    611.6740    681.6732  65.8157177  -1.3416218  65.8157177  -1.3416218
        94  0.001740313 0.0001209698   0.01054355 0.0004838791   0.01054355 0.0004838791 -8.37477e-07    519.2298    677.9385  65.8167452  -1.3416633  65.8167452  -1.3416633
        95   0.01393398 0.0003332325   0.02458386 0.0007582993   0.02458386 0.0007582993 -1.304316e-06    646.8411    664.8153  65.8153269  -1.3418091  65.8153269  -1.3418091
        96 0.0008915378 8.801845e-05  0.006670949 0.0003802832  0.006670949 0.0003802832 2.439307e-06    343.1313    668.7615  65.8187024  -1.3417653  65.8187024  -1.3417653
        97  0.001827641 0.0001244769   0.01310523 0.0005207242   0.01310523 0.0005207242 -3.454582e-07    447.5171    654.9496  65.8175422  -1.3419188  65.8175422  -1.3419188
        98  0.001089943 9.730805e-05  0.008418745 0.0004149229  0.008418745 0.0004149229 3.053033e-06    297.6340    654.6277  65.8192080  -1.3419223  65.8192080  -1.3419223
        99 0.0003022082 5.081747e-05  0.002482364 0.0002032699  0.002482364 0.0002032699 1.761932e-06    187.6704    672.3229  65.8204302  -1.3417257  65.8204302  -1.3417257
       100  0.005441365 0.0002095258   0.01531301 0.0007369994   0.01531301 0.0007369994 3.197323e-06    624.7059    647.3564  65.8155729  -1.3420031  65.8155729  -1.3420031
       101   0.01241387 0.0002752288   0.02254291 0.0007571633   0.02254291 0.0007571633 6.084684e-06    612.0682    638.8184  65.8157134  -1.3420980  65.8157134  -1.3420980
       102  0.001112193 9.730805e-05  0.004067506 0.0003508492  0.004067506 0.0003508492  3.07629e-06    325.9984    635.0007  65.8188928  -1.3421404  65.8188928  -1.3421404
       103  0.005976985 0.0002032699   0.03590886 0.0007872609   0.03590886 0.0007872609 6.792727e-06    623.6855    628.5645  65.8155842  -1.3422119  65.8155842  -1.3422119
       104  0.001211167 9.730805e-05  0.005410524 0.0003593338  0.005410524 0.0003593338 2.646914e-06    663.6542    621.0906  65.8151400  -1.3422950  65.8151400  -1.3422950
       105   0.03769948 0.0005207242   0.06946872  0.001195021   0.06946872  0.001195021 1.022081e-05    567.6225    615.1533  65.8162073  -1.3423609  65.8162073  -1.3423609
       106   0.01059266 0.0002736605   0.02729345  0.000740495   0.02274813  0.001116857 1.151854e-05    572.2141    592.2635  65.8161563  -1.3426153  65.8161563  -1.3426153
       107   0.00205998 0.0001209698  0.005812713 0.0004033512  0.005812713 0.0004033512 1.026726e-05    596.3972    619.6140  65.8158875  -1.3423114  65.8158875  -1.3423114
       108  0.002328429 0.0001407072   0.02097209 0.0006374167   0.02097209 0.0006374167 -4.262518e-07    467.0992    617.4018  65.8173246  -1.3423360  65.8173246  -1.3423360
       109   0.01803877 0.0003652736    0.0161457 0.0007174689    0.0427462  0.001549413 1.138031e-05    569.2070    600.3702  65.8161897  -1.3425252  65.8161897  -1.3425252
       110  0.001089071 9.277959e-05   0.00716751   0.00038254   0.00716751   0.00038254 4.442865e-06    513.2014    617.0152  65.8168122  -1.3423402  65.8168122  -1.3423402
       111  0.008494694  0.000243712   0.01174019 0.0004312005   0.01785283 0.0009853496 1.018574e-05    626.7455    603.9019  65.8155502  -1.3424860  65.8155502  -1.3424860
       112   0.05625015 0.0006553944    0.1214861  0.001922576    0.1214861  0.001922576 8.160712e-06    638.9483    595.9509  65.8154146  -1.3425743  65.8154146  -1.3425743
       113  0.003539196 0.0001735747   0.01100531 0.0004758064   0.01100531 0.0004758064 -7.73239e-07    456.4586    609.1245  65.8174428  -1.3424279  65.8174428  -1.3424279
       114   0.04306525  0.000468514   0.04474293 0.0007790171   0.06207616  0.001473296 1.294684e-05    602.8246    581.7496  65.8158161  -1.3427321  65.8158161  -1.3427321
       115   0.06535523 0.0004169924   0.02882483 0.0006553944    0.0733459 0.0008666444 1.280862e-05    600.0252    601.2833  65.8158472  -1.3425150  65.8158472  -1.3425150
       116  0.002675042 0.0001496026   0.01816165 0.0006340315   0.01816165 0.0006340315 2.786329e-06    958.6385    591.0508  65.8118615  -1.3426287  65.8118615  -1.3426287
       117 0.0005046258 6.560508e-05  0.003306843 0.0002704966  0.003306843 0.0002704966 3.152395e-06    188.1908    590.3934  65.8204244  -1.3426360  65.8204244  -1.3426360
       118 0.0006844273 7.762497e-05  0.005848558 0.0003227343  0.005848558 0.0003227343 -2.022743e-06     37.0072    589.0001  65.8221047  -1.3426515  65.8221047  -1.3426515
       119 0.0008709786 8.801845e-05  0.006422703 0.0003768725  0.006422703 0.0003768725 -1.633258e-06     19.2301    588.3380  65.8223023  -1.3426589  65.8223023  -1.3426589
       120 0.0007116987 7.762497e-05  0.004513931  0.000317355  0.004513931  0.000317355 1.508665e-06    337.2980    584.4316  65.8187672  -1.3427023  65.8187672  -1.3427023
       121 0.0004015988 5.867896e-05  0.002927237 0.0002557757  0.002927237 0.0002557757 -1.411621e-06    450.4966    583.5044  65.8175091  -1.3427126  65.8175091  -1.3427126
       122 0.0006085387 7.186676e-05  0.005864554 0.0003077151  0.005864554 0.0003077151 -3.470795e-07    772.9955    580.4949  65.8139248  -1.3427460  65.8139248  -1.3427460
       123  0.009643992 0.0002767881   0.02289896 0.0008396425   0.02289896 0.0008396425 2.217399e-06    682.5969    572.4178  65.8149295  -1.3428358  65.8149295  -1.3428358
       124  0.003198392  0.000160699   0.01903509 0.0006487941   0.01903509 0.0006487941 1.018574e-05    626.8978    574.2802  65.8155485  -1.3428151  65.8155485  -1.3428151
       125 0.0007943612 8.298459e-05  0.005901946 0.0003483871  0.005901946 0.0003483871 -9.154834e-08    358.8803    575.8586  65.8185273  -1.3427975  65.8185273  -1.3427975
       126  0.003765799 0.0001685425   0.01839977 0.0006387657   0.01839977 0.0006387657 1.174891e-05    576.8372    573.7513  65.8161049  -1.3428210  65.8161049  -1.3428210
       127   0.01038362 0.0002798808   0.03379458  0.001035646   0.02584602  0.001207626 1.216358e-05    586.3418    564.0822  65.8159993  -1.3429284  65.8159993  -1.3429284
       128  0.001447626 0.0001136313   0.01142753 0.0005149058   0.01142753 0.0005149058 -3.892085e-07   1119.4628    564.6822  65.8100741  -1.3429217  65.8100741  -1.3429217
       129  0.001405361  0.000105785  0.007330298 0.0004128431  0.007330298 0.0004128431 -1.221981e-07   1107.6375    560.6168  65.8102055  -1.3429669  65.8102055  -1.3429669
       130  0.001926417 0.0001278878  0.009865669 0.0004721743  0.009865669 0.0004721743 1.910829e-06    840.8445    550.4396  65.8131707  -1.3430800  65.8131707  -1.3430800
       131  0.008433981 0.0002672954   0.03903975  0.001162525   0.03903975  0.001162525  1.06892e-05    553.9930    544.9848  65.8163588  -1.3431406  65.8163588  -1.3431406
       132  0.001871186 0.0001278878   0.01096815 0.0004312005   0.01096815 0.0004312005 1.170452e-05    618.0961    547.6192  65.8156464  -1.3431113  65.8156464  -1.3431113
       133  0.001155709 9.730805e-05  0.008899708 0.0003979801  0.008899708 0.0003979801 4.826624e-06    644.6467    535.1014  65.8153513  -1.3432504  65.8153513  -1.3432504
       134 0.0006094456 7.186676e-05  0.004659509 0.0002919242  0.004659509 0.0002919242 4.630514e-06    203.9845    535.5026  65.8202489  -1.3432459  65.8202489  -1.3432459
       135 0.0006037799 7.186676e-05  0.005576685 0.0003104999  0.005576685 0.0003104999 5.800775e-06    230.4979    534.6662  65.8199542  -1.3432552  65.8199542  -1.3432552
       136 0.0005870425 7.186676e-05  0.006759261 0.0003187084  0.006759261 0.0003187084 -2.736312e-06    359.9978    533.5000  65.8185149  -1.3432682  65.8185149  -1.3432682
       137  0.001273988  0.000105785   0.01053635 0.0004629692   0.01053635 0.0004629692 3.152447e-06    648.8439    530.2460  65.8153046  -1.3433044  65.8153046  -1.3433044
       138  0.004130765 0.0001808607    0.0130421 0.0006421259    0.0130421 0.0006421259 6.354316e-06    590.2475    525.7233  65.8159559  -1.3433546  65.8159559  -1.3433546
       139 0.0009433013 8.801845e-05  0.007455625 0.0003532941  0.007455625 0.0003532941  1.09536e-07    728.9854    526.9927  65.8144139  -1.3433405  65.8144139  -1.3433405
       140  0.002307975 0.0001407072    0.0102306  0.000490066    0.0102306  0.000490066 1.639176e-06    837.4852    518.9578  65.8132080  -1.3434298  65.8132080  -1.3434298
       141 0.0004205202 5.867896e-05  0.003278658 0.0002454717  0.003278658 0.0002454717 -3.616539e-06    463.5074    528.4890  65.8173645  -1.3433239  65.8173645  -1.3433239
       142  0.001422178 0.0001097783  0.009076871 0.0003925355  0.009076871 0.0003925355 -1.850277e-06    670.3330    515.6655  65.8150658  -1.3434664  65.8150658  -1.3434664
       143 0.0007445052 7.762497e-05  0.004600094   0.00031326  0.004600094   0.00031326 -1.507113e-06    729.7096    506.5700  65.8144059  -1.3435674  65.8144059  -1.3435674
       144 0.0003218966 5.081747e-05  0.002581418 0.0002032699  0.002581418 0.0002032699 -4.80106e-06    675.6666    497.6647  65.8150065  -1.3436664  65.8150065  -1.3436664
       145  0.005167702 0.0001946161   0.01150407 0.0005719318   0.01150407 0.0005719318 -5.444059e-06    568.2927    489.3164  65.8161999  -1.3437591  65.8161999  -1.3437591
       146 0.0005172728 6.560508e-05  0.003793825 0.0002704966  0.003793825 0.0002704966 -7.984522e-06    595.6066    476.2007  65.8158963  -1.3439049  65.8158963  -1.3439049
       147  0.002858789 0.0001524524  0.006467445 0.0003859006  0.006467445 0.0003859006 -8.368162e-06    607.6722    466.4939  65.8157622  -1.3440127  65.8157622  -1.3440127
       148  0.001063782 9.730805e-05  0.005071709 0.0003557223  0.005071709 0.0003557223 -7.850726e-06    532.1410    465.4984  65.8166017  -1.3440238  65.8166017  -1.3440238
       149  0.000498542 6.560508e-05  0.004865903 0.0002829397  0.004865903 0.0002829397 -7.810657e-06    489.1885    465.3908  65.8170791  -1.3440250  65.8170791  -1.3440250
       150  0.001229957  0.000105785   0.01261696 0.0004739938   0.01261696 0.0004739938 1.250645e-07   1089.6843    456.9992  65.8104051  -1.3441182  65.8104051  -1.3441182
       151  0.002386131 0.0001466974   0.01633902 0.0006474659   0.01633902 0.0006474659 -4.62172e-06    325.1603    455.1978  65.8189021  -1.3441382  65.8189021  -1.3441382
       152   0.00232678 0.0001344504   0.01106163  0.000509021   0.01106163  0.000509021 -6.498765e-06    418.2972    454.7147  65.8178670  -1.3441436  65.8178670  -1.3441436
       153  0.001186723 0.0001016349    0.0126134 0.0004507217    0.0126134 0.0004507217 -4.23693e-06    314.5902    455.2546  65.8190196  -1.3441376  65.8190196  -1.3441376
       154  0.003283546 0.0001659692   0.01673705 0.0006027104   0.01673705 0.0006027104 -7.594507e-06    676.2358    451.8179  65.8150002  -1.3441758  65.8150002  -1.3441758
       155 0.0006288846 7.186676e-05  0.004310259  0.000287467  0.004310259  0.000287467 1.870419e-06   1029.9919    452.4880  65.8110685  -1.3441683  65.8110685  -1.3441683
       156  0.001807508 0.0001278878   0.01060621 0.0005473209   0.01060621 0.0005473209 -3.510409e-06   1126.3695    434.1892  65.8099973  -1.3443716  65.8099973  -1.3443716
       157  0.004281374  0.000183225   0.03225238 0.0008209814   0.03225238 0.0008209814 1.185257e-06   1026.0020    435.7054  65.8111128  -1.3443548  65.8111128  -1.3443548
       158 0.0004995004 6.560508e-05   0.00382613 0.0002767881   0.00382613 0.0002767881 -5.942497e-06   1183.7939    430.3947  65.8093591  -1.3444138  65.8093591  -1.3444138
       159  0.002852128 0.0001496026   0.01197097  0.000549675   0.01197097  0.000549675 4.380493e-06    156.3818    427.3899  65.8207779  -1.3444472  65.8207779  -1.3444472
       160  0.002671713 0.0001466974    0.0156274 0.0006147304    0.0156274 0.0006147304 1.129756e-06    866.0599    412.0303  65.8128905  -1.3446179  65.8128905  -1.3446179
       161 0.0004835302 6.560508e-05  0.005833861 0.0002977632  0.005833861 0.0002977632 3.757649e-06    130.5919    411.2085  65.8210646  -1.3446270  65.8210646  -1.3446270
       162  0.002411591 0.0001466974    0.0166529 0.0007210592    0.0166529 0.0007210592 4.186617e-07   1029.4338    395.4207  65.8110747  -1.3448024  65.8110747  -1.3448024
       163 0.0003005384 5.081747e-05  0.002378973 0.0002032699  0.002378973 0.0002032699 -3.928977e-06     49.6687    397.3366  65.8219640  -1.3447811  65.8219640  -1.3447811
       164  0.001328322  0.000105785  0.009332122 0.0004516756  0.009332122 0.0004516756 -4.814689e-06    463.5204    395.6817  65.8173643  -1.3447995  65.8173643  -1.3447995
       165 0.0007679769 7.762497e-05  0.003703985 0.0002992052  0.003703985 0.0002992052 -9.439311e-06    605.7258    393.9889  65.8157839  -1.3448183  65.8157839  -1.3448183
       166  0.000814938 8.298459e-05  0.006956282 0.0003532941  0.006956282 0.0003532941 -5.093538e-06    299.1224    389.1191  65.8191915  -1.3448724  65.8191915  -1.3448724
       167 0.0002924334 5.081747e-05  0.003112861 0.0002156003  0.003112861 0.0002156003 -9.015313e-06    595.6640    385.6755  65.8158957  -1.3449107  65.8158957  -1.3449107
       168  0.004862124 0.0002095258   0.02755221 0.0008334685   0.02755221 0.0008334685 -2.431828e-07   1057.9537    380.3961  65.8107577  -1.3449693  65.8107577  -1.3449693
       169 0.0003882647 5.867896e-05  0.004014461 0.0002591193  0.004014461 0.0002591193 -3.745162e-06    245.5015    378.9996  65.8197874  -1.3449849  65.8197874  -1.3449849
       170 0.0003007129 5.081747e-05  0.003530418 0.0002156003  0.003530418 0.0002156003 -1.479131e-06    192.6610    373.3216  65.8203747  -1.3450479  65.8203747  -1.3450479
       171 0.0005043361 6.560508e-05  0.003475641 0.0002767881  0.003475641 0.0002767881 -8.450968e-06    581.7879    369.5969  65.8160499  -1.3450893  65.8160499  -1.3450893
       172 0.0009972457 9.277959e-05  0.007492562 0.0003802832  0.007492562 0.0003802832 -3.745009e-06    370.5009    368.0131  65.8183982  -1.3451069  65.8183982  -1.3451069
       173  0.002789567 0.0001552499   0.01390198 0.0005223746   0.01390198 0.0005223746 1.545758e-06    982.3090    366.4014  65.8115984  -1.3451248  65.8115984  -1.3451248
       174 0.0002919627 5.081747e-05  0.003234484 0.0002156003  0.003234484 0.0002156003 -1.868869e-06    496.6649    344.3274  65.8169960  -1.3453701  65.8169960  -1.3453701
       175 0.0007774631 8.298459e-05  0.004105314 0.0002783388  0.004105314 0.0002783388 -2.069618e-07    476.4002    341.2088  65.8172212  -1.3454048  65.8172212  -1.3454048
       176  0.001540938 0.0001136313  0.009493686  0.000466673  0.009493686  0.000466673 -3.196212e-06    516.8192    334.2592  65.8167720  -1.3454820  65.8167720  -1.3454820
       177  0.001048748 9.277959e-05   0.00824762 0.0003947224   0.00824762 0.0003947224 -7.269963e-06    675.9963    330.8049  65.8150029  -1.3455204  65.8150029  -1.3455204
       178  0.001430638 0.0001097783   0.00906734 0.0004638979   0.00906734 0.0004638979 2.391191e-07    991.0251    322.5663  65.8115016  -1.3456119  65.8115016  -1.3456119
       179  0.002539949 0.0001524524  0.008539793 0.0004044168  0.008539793 0.0004044168 -1.392845e-06    836.1234    318.5388  65.8132232  -1.3456567  65.8132232  -1.3456567
       180 0.0009506373 9.277959e-05  0.009424781 0.0004211008  0.009424781 0.0004211008 -5.448632e-07    495.4970    314.3961  65.8170090  -1.3457027  65.8170090  -1.3457027
       181  0.002435777 0.0001466974   0.01472126 0.0005749341   0.01472126 0.0005749341 -2.423274e-06    347.7258    310.9524  65.8186513  -1.3457409  65.8186513  -1.3457409
       182 0.0006797478 7.762497e-05   0.00730343 0.0003459074   0.00730343 0.0003459074 -3.456108e-06    760.8682    306.2785  65.8140596  -1.3457929  65.8140596  -1.3457929
       183 0.0005870643 7.186676e-05  0.005357321 0.0003077151  0.005357321 0.0003077151 -1.234248e-06    382.5008    305.0041  65.8182648  -1.3458070  65.8182648  -1.3458070
       184 0.0007058936 7.762497e-05  0.003371648 0.0003146309  0.003371648 0.0003146309 -7.470875e-06    622.0040    318.2845  65.8156029  -1.3456595  65.8156029  -1.3456595
       185 0.0008635437 8.801845e-05  0.008507003 0.0003870144  0.008507003 0.0003870144 -7.708068e-07    518.3338    300.1042  65.8167551  -1.3458615  65.8167551  -1.3458615
       186 0.0004957244 6.560508e-05  0.003964978 0.0002767881  0.003964978 0.0002767881 -2.666764e-07    834.8047    296.3989  65.8132378  -1.3459027  65.8132378  -1.3459027
       187  0.001641991 0.0001209698   0.01214871 0.0005190684   0.01214871 0.0005190684 -4.171408e-06    726.6955    295.3085  65.8144394  -1.3459148  65.8144394  -1.3459148
       188 0.0005862228 7.186676e-05  0.006106521 0.0003159959  0.006106521 0.0003159959  -1.1827e-06    307.9884    269.4979  65.8190930  -1.3462015  65.8190930  -1.3462015
       189 0.0009517261 8.801845e-05  0.005518255 0.0003434098  0.005518255 0.0003434098 -2.493411e-06    234.9873    269.0143  65.8199043  -1.3462069  65.8199043  -1.3462069
       190 0.0007038964 7.762497e-05  0.004076464 0.0003187084  0.004076464 0.0003187084 -1.17747e-06    593.2758    260.0038  65.8159222  -1.3463070  65.8159222  -1.3463070
       191 0.0002884328 5.081747e-05  0.003208288 0.0002156003  0.003208288 0.0002156003 -2.565389e-06   1051.3260    258.3314  65.8108314  -1.3463256  65.8108314  -1.3463256
       192  0.001026716 9.277959e-05  0.006971998 0.0003925355  0.006971998 0.0003925355 -1.183938e-06    681.8981    254.2091  65.8149373  -1.3463714  65.8149373  -1.3463714
       193  0.001068543 9.730805e-05  0.008946534 0.0004478478  0.008946534 0.0004478478 3.283418e-07    444.9833    250.4398  65.8175704  -1.3464133  65.8175704  -1.3464133
       194  0.004076999 0.0001901416   0.03495251 0.0009114149   0.03495251 0.0009114149 1.013104e-06    524.7671    241.4623  65.8166836  -1.3465131  65.8166836  -1.3465131
       195  0.000296536 5.081747e-05  0.002672456 0.0002032699  0.002672456 0.0002032699  2.48997e-06    316.6766    230.6667  65.8189964  -1.3466330  65.8189964  -1.3466330
       196  0.002766629 0.0001466974  0.009359306  0.000502211  0.009359306  0.000502211 3.940872e-06    605.5663    226.7648  65.8157856  -1.3466764  65.8157856  -1.3466764
       197 0.0002867403 5.081747e-05  0.003287241 0.0002156003  0.003287241 0.0002156003 -4.85943e-06     22.3332    225.6687  65.8222678  -1.3466885  65.8222678  -1.3466885
       198  0.002617769 0.0001496026    0.0158838 0.0006313104    0.0158838 0.0006313104 3.499409e-07    442.3676    223.1455  65.8175994  -1.3467166  65.8175994  -1.3467166
       199  0.003113237 0.0001685425   0.03972918 0.0008629001   0.03972918 0.0008629001 2.896697e-06    244.2059    211.8409  65.8198018  -1.3468422  65.8198018  -1.3468422
       200  0.001039081 9.277959e-05  0.005780638 0.0003734306  0.005780638 0.0003734306 -9.753269e-07    801.8120    209.1255  65.8136045  -1.3468724  65.8136045  -1.3468724
       201 0.0008377671 8.298459e-05  0.006287077 0.0003483871  0.006287077 0.0003483871 3.446899e-06    241.8685    203.8826  65.8198278  -1.3469306  65.8198278  -1.3469306
       202 0.0009131646 8.801845e-05  0.007898647 0.0003757287  0.007898647 0.0003757287 -4.105328e-06    577.3315   1187.8745  65.8160994  -1.3359974  65.8160994  -1.3359974
       203 0.0003887001 5.867896e-05  0.004612117 0.0002624203  0.004612117 0.0002624203 -6.033158e-06   1144.4974    980.4944  65.8097959  -1.3383016  65.8097959  -1.3383016
       204 0.0003763487 5.867896e-05  0.005146216 0.0002624203  0.005146216 0.0002624203 -2.477929e-06   1042.4985    981.4959  65.8109295  -1.3382905  65.8109295  -1.3382905
       205  0.001353164  0.000105785  0.007642109 0.0004331923  0.007642109 0.0004331923  1.15975e-06    377.2216   1149.8510  65.8183235  -1.3364198  65.8183235  -1.3364198
       206 0.0004901568 6.560508e-05  0.005677846 0.0002948582  0.005677846 0.0002948582 -4.368355e-06    681.1982   1151.6028  65.8149450  -1.3364004  65.8149450  -1.3364004
       207   0.00293622 0.0001496026   0.01594553 0.0006168273   0.01594553 0.0006168273 4.244099e-06    942.7387    979.9989  65.8120382  -1.3383071  65.8120382  -1.3383071
       208 0.0002886063 5.081747e-05  0.002991408 0.0002156003  0.002991408 0.0002156003 -1.527381e-06    839.3310   1158.3319  65.8131875  -1.3363256  65.8131875  -1.3363256
       209  0.000805194 8.298459e-05  0.004002676 0.0003345216  0.004002676 0.0003345216 5.731412e-06    557.1313   1008.1339  65.8163239  -1.3379945  65.8163239  -1.3379945
       210 0.0002929643 5.081747e-05  0.003684445 0.0002156003  0.003684445 0.0002156003 4.365198e-06    485.6702   1159.6681  65.8171182  -1.3363108  65.8171182  -1.3363108
       211  0.003119988  0.000160699  0.008608801 0.0004829888  0.008608801 0.0004829888  5.81787e-06    583.4903   1034.2256  65.8160310  -1.3377046  65.8160310  -1.3377046
       212  0.001026054 9.277959e-05  0.007304343 0.0003914375  0.007304343 0.0003914375 -3.151733e-06   1075.5117   1023.9899  65.8105626  -1.3378183  65.8105626  -1.3378183
       213 0.0002804405 5.081747e-05  0.003689994 0.0002156003  0.003689994 0.0002156003  6.38175e-06    513.3362    999.3320  65.8168107  -1.3380923  65.8168107  -1.3380923
       214 0.0008663952 8.801845e-05  0.005773881 0.0003745814  0.005773881 0.0003745814 5.135673e-06    607.6686    994.1071  65.8157623  -1.3381503  65.8157623  -1.3381503
       215 0.0006773556 7.762497e-05  0.007351509 0.0003434098  0.007351509 0.0003434098 5.250751e-06    595.4257    998.2657  65.8158983  -1.3381041  65.8158983  -1.3381041
       216 0.0008808975 8.801845e-05  0.006163289 0.0003757287  0.006163289 0.0003757287 3.637467e-06    243.6729   1027.1207  65.8198078  -1.3377835  65.8198078  -1.3377835
       217  0.001440916 0.0001097783   0.01124389  0.000474901   0.01124389  0.000474901 8.771797e-07    569.2242   1139.1619  65.8161895  -1.3365386  65.8161895  -1.3365386
       218   0.00126298 0.0001016349  0.006460557 0.0003947224  0.006460557 0.0003947224 6.137305e-06    522.2315   1125.5953  65.8167118  -1.3366894  65.8167118  -1.3366894
       219 0.0003827852 5.867896e-05  0.004708117 0.0002783388  0.004708117 0.0002783388 5.869466e-07    584.7495   1118.0007  65.8160170  -1.3367737  65.8160170  -1.3367737
       220  0.001174381 0.0001016349  0.009194845 0.0004410691  0.009194845 0.0004410691 -2.204077e-06    613.4208   1112.7513  65.8156983  -1.3368321  65.8156983  -1.3368321
       221  0.001936285 0.0001312102   0.01341477  0.000549675   0.01341477  0.000549675 -1.436674e-05   1192.8099   1117.2633  65.8092589  -1.3367819  65.8092589  -1.3367819
       222 0.0002880897 5.081747e-05  0.003137363 0.0002156003  0.003137363 0.0002156003  2.56316e-06    997.6620   1099.6703  65.8114278  -1.3369774  65.8114278  -1.3369774
       223 0.0004658132 6.560508e-05  0.006474184 0.0003020685  0.006474184 0.0003020685 6.699431e-06    535.2071   1097.6002  65.8165676  -1.3370004  65.8165676  -1.3370004
       224 0.0008260733 8.298459e-05  0.004173473 0.0003267106  0.004173473 0.0003267106 7.731596e-06    482.4932   1077.5316  65.8171535  -1.3372234  65.8171535  -1.3372234
       225   0.00159095 0.0001173579   0.01446882 0.0005223746   0.01446882 0.0005223746 3.952566e-06    913.2020   1072.5081  65.8123665  -1.3372792  65.8123665  -1.3372792
       226 0.0002966234 5.081747e-05  0.002870332 0.0002135947  0.002870332 0.0002135947 5.617102e-06    571.6672   1069.3265  65.8161624  -1.3373146  65.8161624  -1.3373146
       227 0.0003889101 5.867896e-05  0.004581018 0.0002624203  0.004581018 0.0002624203 -4.182519e-06    723.4984   1077.5013  65.8144749  -1.3372237  65.8144749  -1.3372237
       228 0.0007034439 7.762497e-05  0.006262092 0.0003227343  0.006262092 0.0003227343 -1.177282e-06    814.9995   1075.0067  65.8134580  -1.3372515  65.8134580  -1.3372515
       229 0.0004784246 6.560508e-05   0.00507513 0.0002948582   0.00507513 0.0002948582  3.55028e-06    297.5971   1064.6022  65.8192084  -1.3373671  65.8192084  -1.3373671
       230  0.008254313 0.0002656803   0.02422544 0.0007756951   0.02422544 0.0007756951 7.251601e-06    525.6617   1056.0330  65.8166737  -1.3374623  65.8166737  -1.3374623
       231  0.004704341 0.0001968152   0.01230343 0.0006593228   0.01230343 0.0006593228 4.903461e-06    623.2937   1056.5752  65.8155886  -1.3374562  65.8155886  -1.3374562
       232  0.001939093 0.0001312102   0.01206277 0.0005566775   0.01206277 0.0005566775 5.290048e-06    412.8549   1047.1372  65.8179274  -1.3375611  65.8179274  -1.3375611
       233 0.0005052874 6.560508e-05  0.004240263 0.0002783388  0.004240263 0.0002783388 6.690514e-06    930.2051   1037.6033  65.8121775  -1.3376670  65.8121775  -1.3376670
       234  0.001939929 0.0001244769  0.007769276 0.0004758064  0.007769276 0.0004758064 5.273446e-06    614.0594   1056.7544  65.8156912  -1.3374543  65.8156912  -1.3374543
       235  0.004123547 0.0001808607    0.0152592 0.0006105151    0.0152592 0.0006105151 6.086917e-06    567.6699   1033.7230  65.8162068  -1.3377102  65.8162068  -1.3377102
       236  0.001638876 0.0001173579   0.01511441 0.0005140693   0.01511441 0.0005140693 2.366975e-06    884.5742   1032.3787  65.8126847  -1.3377251  65.8126847  -1.3377251
