#   1 NUMBER                 Running object number                                     
#   2 FLUX_ISO               Isophotal flux                                             [count]
#   3 FLUXERR_ISO            RMS error for isophotal flux                               [count]
#   4 FLUX_AUTO              Flux within a Kron-like elliptical aperture                [count]
#   5 FLUXERR_AUTO           RMS error for AUTO flux                                    [count]
#   6 FLUX_BEST              Best of FLUX_AUTO and FLUX_ISOCOR                          [count]
#   7 FLUXERR_BEST           RMS error for BEST flux                                    [count]
#   8 BACKGROUND             Background at centroid position                            [count]
#   9 X_IMAGE                Object position along x                                    [pixel]
#  10 Y_IMAGE                Object position along y                                    [pixel]
#  11 ALPHA_SKY              Right ascension of barycenter (native)                     [deg]
#  12 DELTA_SKY              Declination of barycenter (native)                         [deg]
#  13 ALPHA_J2000            Right ascension of barycenter (J2000)                      [deg]
#  14 DELTA_J2000            Declination of barycenter (J2000)                          [deg]
         1   0.03339708 0.0004748501    0.1231911  0.001605913    0.1231911  0.001605913 -5.679951e-06    222.0043    194.3831  65.8226297  -1.3504606  65.8226297  -1.3504606
         2   0.00429712 0.0001764123   0.03238611  0.000760131   0.03238611  0.000760131 -1.382402e-06    485.4883     38.2361  65.8116482  -1.3569667  65.8116482  -1.3569667
         3  0.006293025 0.0002153795   0.04341003  0.000800393   0.04341003  0.000800393 -5.174344e-07    466.4859     31.9173  65.8124402  -1.3572300  65.8124402  -1.3572300
         4  0.001649345 0.0001110454   0.01139773 0.0004936452   0.01139773 0.0004936452 -2.415328e-07    286.3400    729.1691  65.8199483  -1.3281778  65.8199483  -1.3281778
         5  0.002963105  0.000143359   0.01452623 0.0005688093   0.01452623 0.0005688093 -7.985306e-07    390.3014    720.9041  65.8156154  -1.3285222  65.8156154  -1.3285222
         6  0.001305921 9.991147e-05   0.01451253 0.0004723704   0.01451253 0.0004723704 -3.121254e-07    369.0077    719.7691  65.8165029  -1.3285695  65.8165029  -1.3285695
         7 0.0007659906  7.66286e-05   0.01043255   0.00035942   0.01043255   0.00035942 -2.612433e-06    592.4971    717.2075  65.8071883  -1.3286762  65.8071883  -1.3286762
         8 0.0007161148 7.269628e-05  0.006887397 0.0003232964  0.006887397 0.0003232964 -1.445324e-06    295.8784    694.4503  65.8195508  -1.3296244  65.8195508  -1.3296244
         9   0.02391792 0.0004054804   0.07161125  0.001388015   0.07161125  0.001388015 -6.245103e-07    439.8556    650.9549  65.8135501  -1.3314367  65.8135501  -1.3314367
        10  0.004065678 0.0001730518   0.03177116 0.0007570348   0.03177116 0.0007570348 -1.923912e-06    574.2954    636.0435  65.8079469  -1.3320580  65.8079469  -1.3320580
        11 0.0005400627 6.411209e-05  0.007556543  0.000286718  0.007556543  0.000286718 -1.098249e-06    102.0059    629.9995  65.8276310  -1.3323099  65.8276310  -1.3323099
        12   0.01150628 0.0002907851   0.05676325 0.0009469137   0.05676325 0.0009469137 -3.816761e-06    355.5104    644.4933  65.8170654  -1.3317060  65.8170654  -1.3317060
        13 0.0003006648 4.846418e-05  0.005077987 0.0002273172  0.005077987 0.0002273172  1.82668e-08     99.5010    649.5028  65.8277354  -1.3314972  65.8277354  -1.3314972
        14  0.004104187 0.0001713467   0.02643112 0.0006461386   0.02643112 0.0006461386 -2.573467e-06    447.9486    581.6825  65.8132128  -1.3343231  65.8132128  -1.3343231
        15 0.0005558959 6.411209e-05   0.00695781 0.0002937985   0.00695781 0.0002937985 -7.311947e-06    385.9872    583.2966  65.8157952  -1.3342558  65.8157952  -1.3342558
        16   0.00831401 0.0002411063   0.04145685 0.0009619865   0.04145685 0.0009619865 -2.509104e-06    548.9394    574.9628  65.8090037  -1.3346031  65.8090037  -1.3346031
        17 0.0003046643 4.846418e-05  0.004810704 0.0002336858  0.004810704 0.0002336858 -4.868415e-06    110.0007    574.7472  65.8272978  -1.3346120  65.8272978  -1.3346120
        18  0.002519187 0.0001349186   0.02265233 0.0005984885   0.02265233 0.0005984885 -8.369476e-06    293.9965    544.0665  65.8196292  -1.3358904  65.8196292  -1.3358904
        19  0.001235457 9.692836e-05   0.00893514 0.0003168757   0.00893514 0.0003168757 -9.367952e-06    235.7119    540.4237  65.8220584  -1.3360422  65.8220584  -1.3360422
        20  0.001110036 9.066818e-05  0.007795985 0.0003392493  0.007795985 0.0003392493 -5.033911e-06    292.7819    522.6682  65.8196798  -1.3367820  65.8196798  -1.3367820
        21  0.003392947 0.0001607375   0.02658222 0.0005708702   0.02658222 0.0005708702 -3.391223e-06    529.5859    519.6117  65.8098103  -1.3369094  65.8098103  -1.3369094
        22  0.002046435 0.0001235599   0.01022542 0.0004526928   0.01022542 0.0004526928 -8.523715e-06    419.3468    518.9332  65.8144049  -1.3369376  65.8144049  -1.3369376
        23   0.00150569 0.0001028081  0.009873844   0.00042665  0.009873844   0.00042665 -5.559531e-06    385.1767    515.4294  65.8158290  -1.3370836  65.8158290  -1.3370836
        24  0.001746271 0.0001136586   0.01117397 0.0004526928   0.01117397 0.0004526928 -4.103066e-06    517.4789    513.9002  65.8103149  -1.3371473  65.8103149  -1.3371473
        25  0.003715669 0.0001696246   0.02889907  0.000696857   0.02889907  0.000696857 -7.541594e-07    336.4277    503.6300  65.8178608  -1.3375753  65.8178608  -1.3375753
        26  0.007708053 0.0002234088   0.03113644 0.0008383743   0.03113644 0.0008383743 -2.482606e-06    370.8452    503.4071  65.8164263  -1.3375846  65.8164263  -1.3375846
        27  0.005444154 0.0002027402   0.04555174 0.0009192239   0.04555174 0.0009192239 3.301846e-06     78.6476    502.5312  65.8286045  -1.3376210  65.8286045  -1.3376210
        28   0.00182517 0.0001187125   0.01921291 0.0005208491   0.01921291 0.0005208491 1.811245e-06    699.4291    479.8139  65.8027316  -1.3385676  65.8027316  -1.3385676
        29  0.003899387 0.0001678848    0.0213832 0.0005423876    0.0213832 0.0005423876 -1.726646e-06    384.5273    479.3370  65.8158561  -1.3385875  65.8158561  -1.3385875
        30  0.001703168 0.0001083692   0.01219843 0.0004629534   0.01219843 0.0004629534  4.15572e-06    314.4429    466.3513  65.8187771  -1.3391286  65.8187771  -1.3391286
        31   0.02811441 0.0004494383   0.06872635  0.001407131   0.06872635  0.001407131 -4.655708e-06    237.4023    464.8129  65.8219880  -1.3391926  65.8219880  -1.3391926
        32  0.003654062 0.0001607375   0.03306677 0.0006658316   0.03306677 0.0006658316   6.0463e-06    323.6562    453.5376  65.8183931  -1.3396625  65.8183931  -1.3396625
        33    0.0005335 6.411209e-05  0.007656432 0.0002937985  0.007656432 0.0002937985 4.255434e-06    615.2809    462.5725  65.8062387  -1.3392860  65.8062387  -1.3392860
        34    0.1076437 0.0005065608    0.1251424  0.001098224    0.1227832  0.001100094 9.186368e-06    391.9711    388.8442  65.8155458  -1.3423580  65.8155458  -1.3423580
        35    0.1917882 0.0006806587    0.2766482  0.001688266    0.2193959   0.00148913 5.609472e-06    381.7248    376.8969  65.8159729  -1.3428558  65.8159729  -1.3428558
        36   0.01491889 0.0003278057   0.09037022  0.001300205   0.06548948  0.001609406 3.566946e-06    350.5242    388.8535  65.8172733  -1.3423576  65.8172733  -1.3423576
        37  0.008319702 0.0002435295   0.03372683 0.0009789285   0.03372683 0.0009789285 1.176429e-05    421.7360    383.5519  65.8143053  -1.3425785  65.8143053  -1.3425785
        38   0.01115965 0.0002518273   0.06304651 0.0009425629   0.06304651 0.0009425629 7.258122e-07    332.3229    380.0240  65.8180319  -1.3427255  65.8180319  -1.3427255
        39  0.001899086 0.0001187125   0.01814052 0.0005336564   0.01814052 0.0005336564 -2.507153e-06    228.2167    376.9483  65.8223708  -1.3428537  65.8223708  -1.3428537
        40 0.0007748256  7.66286e-05  0.009063921   0.00035942  0.009063921   0.00035942 -4.74112e-07    526.6953    361.3954  65.8099308  -1.3435017  65.8099308  -1.3435017
        41  0.002779446  0.000143359   0.02848685 0.0006415786   0.02848685 0.0006415786 -6.553931e-06     80.1909    359.0722  65.8285402  -1.3435985  65.8285402  -1.3435985
        42    0.0106007 0.0002621101   0.04946586 0.0009858025   0.02952356  0.001170549 2.780761e-06    391.4110    343.3324  65.8155692  -1.3442543  65.8155692  -1.3442543
        43  0.005030427  0.000187701   0.02678077   0.00064295   0.02678077   0.00064295 -7.135873e-06    358.4320    345.6606  65.8169437  -1.3441573  65.8169437  -1.3441573
        44    0.0219137 0.0003929785   0.06432117  0.001272358   0.06432117  0.001272358 4.533311e-07    539.9451    309.8999  65.8093785  -1.3456474  65.8093785  -1.3456474
        45  0.006848499 0.0002207649   0.01628403 0.0006182746   0.01628403 0.0006182746 -1.127476e-05    348.5357    306.4247  65.8173561  -1.3457922  65.8173561  -1.3457922
        46 0.0004663338 5.935626e-05  0.005962464 0.0002632279  0.005962464 0.0002632279 -3.909897e-06    154.0010    305.5009  65.8254640  -1.3458306  65.8254640  -1.3458306
        47  0.004545854 0.0001813364   0.03219761 0.0007527565   0.03219761 0.0007527565 -7.958772e-06     70.6377    290.2575  65.8289384  -1.3464658  65.8289384  -1.3464658
        48  0.004053238 0.0001696246   0.03242562   0.00074649   0.01637877 0.0008218188  1.29509e-06    495.0364    265.8100  65.8112503  -1.3474844  65.8112503  -1.3474844
        49  0.009449451 0.0002529905   0.04690701 0.0009466036   0.03074707  0.001174948 1.857153e-06    483.0938    275.9549  65.8117480  -1.3470617  65.8117480  -1.3470617
        50    0.0172805 0.0003331362   0.07526014  0.001356781   0.04680648  0.001475909 1.621358e-06    478.0272    264.8492  65.8119592  -1.3475245  65.8119592  -1.3475245
        51   0.01042522 0.0002575907   0.03862095  0.000913778   0.02750226  0.001132245 1.251597e-06    469.2401    259.5891  65.8123254  -1.3477436  65.8123254  -1.3477436
        52  0.002079205 0.0001259136   0.02666064 0.0005775174   0.02666064 0.0005775174  1.60054e-06    499.8813    281.6702  65.8110483  -1.3468236  65.8110483  -1.3468236
        53  0.002212742 0.0001304938   0.02835148 0.0006556113   0.02835148 0.0006556113 -1.573737e-06    693.5541    271.2029  65.8029764  -1.3472597  65.8029764  -1.3472597
        54   0.00616022 0.0002167384   0.03920937 0.0008253153   0.03920937 0.0008253153 -1.059786e-05     28.9019    255.4539  65.8306779  -1.3479159  65.8306779  -1.3479159
        55  0.006822354 0.0002167384    0.0207735 0.0006797955    0.0207735 0.0006797955 -5.020877e-06    393.7072    253.8809  65.8154735  -1.3479815  65.8154735  -1.3479815
        56   0.01388577 0.0003140838   0.06337012  0.001139166   0.06337012  0.001139166 -1.146495e-05    341.8254    247.2124  65.8176358  -1.3482593  65.8176358  -1.3482593
        57    0.0037259   0.00016435   0.03655318 0.0007417554   0.03655318 0.0007417554 -5.041042e-06    251.4558    255.1733  65.8214023  -1.3479276  65.8214023  -1.3479276
        58  0.003081813 0.0001513294   0.03460828  0.000713099   0.03460828  0.000713099 -7.237811e-06    220.8987    232.7225  65.8226758  -1.3488631  65.8226758  -1.3488631
        59 0.0002998188 4.846418e-05  0.005565969 0.0002411063  0.005565969 0.0002411063  -2.1695e-05    728.2513    753.2493  65.8015304  -1.3271744  65.8015304  -1.3271744
        60  0.001588201 0.0001083692   0.01003056 0.0004474743   0.01003056 0.0004474743 -1.790422e-06    395.9525    182.3035  65.8153799  -1.3509639  65.8153799  -1.3509639
        61  0.008583596  0.000248305   0.08228394  0.001086398   0.08228394  0.001086398 -4.223222e-06    225.3081    168.3351  65.8224921  -1.3515459  65.8224921  -1.3515459
        62  0.003382612 0.0001551611   0.01848785 0.0006215897   0.01848785 0.0006215897 -7.898862e-07    389.7746    166.1818  65.8156374  -1.3516356  65.8156374  -1.3516356
        63  0.001079088 9.066818e-05   0.01078608 0.0004147866   0.01078608 0.0004147866 4.112547e-07    392.3510    136.3480  65.8155300  -1.3528787  65.8155300  -1.3528787
        64 0.0008682131 8.036876e-05  0.009972125   0.00035942  0.009972125   0.00035942 -3.00636e-06    384.0973    184.6447  65.8158740  -1.3508663  65.8158740  -1.3508663
        65 0.0006845752 7.269628e-05   0.01084167 0.0003544849   0.01084167 0.0003544849 -7.583527e-07    490.6664    124.2188  65.8114324  -1.3533841  65.8114324  -1.3533841
        66   0.01785712 0.0003401136    0.0463527 0.0009905562    0.0463527 0.0009905562 -8.016141e-07    331.3484    116.1798  65.8180725  -1.3537190  65.8180725  -1.3537190
        67  0.003797484 0.0001625538   0.02387769 0.0006767655   0.02387769 0.0006767655 1.288145e-06    439.7003    107.2773  65.8135566  -1.3540900  65.8135566  -1.3540900
        68  0.004986187 0.0001938567    0.0421394 0.0008543316    0.0421394 0.0008543316 3.029395e-06    415.2439     96.1190  65.8145759  -1.3545549  65.8145759  -1.3545549
        69  0.001017268 8.737005e-05  0.009477481 0.0003989106  0.009477481 0.0003989106 -1.118886e-06    474.0819     76.2140  65.8121236  -1.3553843  65.8121236  -1.3553843
        70  0.002516483 0.0001349186   0.01859972 0.0005698407   0.01859972 0.0005698407 -5.451502e-07    506.7620     59.0184  65.8107615  -1.3561008  65.8107615  -1.3561008
        71  0.003784985 0.0001678848   0.03742839  0.000772772   0.03742839  0.000772772 -8.502128e-07    497.9069     54.9106  65.8111306  -1.3562719  65.8111306  -1.3562719
        72  0.004939334 0.0001845461   0.02271038 0.0007010575   0.02271038 0.0007010575 1.662829e-06    437.2462     42.5748  65.8136588  -1.3567859  65.8136588  -1.3567859
        73   0.01029889 0.0002676522   0.05132207 0.0009692836   0.05132207 0.0009692836 -9.929751e-06    195.6790     39.6487  65.8237270  -1.3569078  65.8237270  -1.3569078
        74  0.001372801 9.991147e-05   0.01284715 0.0004401978   0.01284715 0.0004401978 -1.917966e-06    571.5333    730.6423  65.8080621  -1.3281164  65.8080621  -1.3281164
