#   1 NUMBER                 Running object number                                     
#   2 FLUX_ISO               Isophotal flux                                             [count]
#   3 FLUXERR_ISO            RMS error for isophotal flux                               [count]
#   4 FLUX_AUTO              Flux within a Kron-like elliptical aperture                [count]
#   5 FLUXERR_AUTO           RMS error for AUTO flux                                    [count]
#   6 FLUX_BEST              Best of FLUX_AUTO and FLUX_ISOCOR                          [count]
#   7 FLUXERR_BEST           RMS error for BEST flux                                    [count]
#   8 BACKGROUND             Background at centroid position                            [count]
#   9 X_IMAGE                Object position along x                                    [pixel]
#  10 Y_IMAGE                Object position along y                                    [pixel]
#  11 ALPHA_SKY              Right ascension of barycenter (native)                     [deg]
#  12 DELTA_SKY              Declination of barycenter (native)                         [deg]
#  13 ALPHA_J2000            Right ascension of barycenter (J2000)                      [deg]
#  14 DELTA_J2000            Declination of barycenter (J2000)                          [deg]
         1  0.009775525 0.0003018092    0.0337512  0.001005794    0.0337512  0.001005794 -4.781453e-06    401.7874     52.9049  65.8183283  -1.3488859  65.8183283  -1.3488859
         2  0.003659117 0.0001822652   0.01659015 0.0007043905   0.01659015 0.0007043905 -4.194192e-06   1151.2041     48.6741  65.8099992  -1.3489329  65.8099992  -1.3489329
         3  0.001631561 0.0001224862  0.008530518 0.0004953826  0.008530518 0.0004953826 -4.618355e-06   1145.5066     43.4820  65.8100625  -1.3489906  65.8100625  -1.3489906
         4  0.002688192 0.0001569954   0.01574192 0.0006237008   0.01574192 0.0006237008 2.884684e-06    751.1103     49.5569  65.8144459  -1.3489231  65.8144459  -1.3489231
         5  0.002634766 0.0001569954   0.01587331 0.0005991636   0.01587331 0.0005991636 1.771034e-06    660.1738     55.0048  65.8154566  -1.3488626  65.8154566  -1.3488626
         6  0.002029988 0.0001349732   0.01239135 0.0005428619   0.01239135 0.0005428619 -5.745314e-06    451.5857     51.3930  65.8177748  -1.3489027  65.8177748  -1.3489027
         7  0.003475912 0.0001762877   0.01618469  0.000666075   0.01618469  0.000666075 -3.12491e-06    852.2948     51.2135  65.8133213  -1.3489047  65.8133213  -1.3489047
         8   0.00201631 0.0001349732   0.01298862 0.0005497276   0.01298862 0.0005497276 -5.163933e-06    599.4047     51.1535  65.8161320  -1.3489054  65.8161320  -1.3489054
         9  0.002698029 0.0001535445   0.01238345 0.0005991636   0.01238345 0.0005991636 -3.03337e-06    202.2195     50.3253  65.8205464  -1.3489146  65.8205464  -1.3489146
        10 0.0003125799 5.670008e-05  0.003822643  0.000240558  0.003822643  0.000240558 -1.738071e-06    818.3287     45.3342  65.8136988  -1.3489700  65.8136988  -1.3489700
        11     0.001141 0.0001035197  0.009210959 0.0004524178  0.009210959 0.0004524178 -9.917387e-07   1053.0898     51.2992  65.8110896  -1.3489038  65.8110896  -1.3489038
        12  0.001491054 0.0001180306  0.007575769 0.0004664134  0.007575769 0.0004664134 -3.822317e-06    897.6993     50.0751  65.8128167  -1.3489174  65.8128167  -1.3489174
        13  0.001152432 0.0001085724   0.01084094 0.0004743868   0.01084094 0.0004743868 3.820991e-06    733.3719     51.0882  65.8146430  -1.3489061  65.8146430  -1.3489061
        14  0.002011167 0.0001388862   0.01397962  0.000543848   0.01397962  0.000543848 -4.279437e-06    608.2582     57.3403  65.8160336  -1.3488366  65.8160336  -1.3488366
        15 0.0006844912 8.018602e-05  0.004644596 0.0003240679  0.004644596 0.0003240679 -6.775741e-06    479.1675     51.8312  65.8174683  -1.3488978  65.8174683  -1.3488978
        16  0.002755714  0.000160372   0.01345665  0.000645651   0.01345665  0.000645651 3.683003e-06    706.1936     55.5228  65.8149451  -1.3488568  65.8149451  -1.3488568
        17 0.0004362427 6.547161e-05      0.00379 0.0002853841      0.00379 0.0002853841 -3.074299e-06    248.9947     51.5041  65.8200265  -1.3489015  65.8200265  -1.3489015
        18 0.0004806579 6.547161e-05  0.004623805 0.0002853841  0.004623805 0.0002853841 -6.341623e-06    555.5009     56.4985  65.8166199  -1.3488460  65.8166199  -1.3488460
        19    0.0135885  0.000343336   0.02595292 0.0006176579   0.02595292 0.0006176579 -5.758841e-06    551.5595    101.6862  65.8166637  -1.3483439  65.8166637  -1.3483439
        20 0.0004412104 6.547161e-05  0.005270035 0.0002927979  0.005270035 0.0002927979 2.138908e-06    656.5035     83.4984  65.8154974  -1.3485460  65.8154974  -1.3485460
        21  0.001110652 0.0001035197  0.007251199 0.0004305723  0.007251199 0.0004305723 -1.154356e-06   1145.3066     91.7150  65.8100647  -1.3484547  65.8100647  -1.3484547
        22  0.001233212 0.0001085724  0.009739688 0.0004500429  0.009739688 0.0004500429 1.292847e-07    612.1031     97.6471  65.8159908  -1.3483888  65.8159908  -1.3483888
        23  0.001013474 9.820741e-05   0.00871568 0.0004342895   0.00871568 0.0004342895 -1.790828e-07    313.2102     97.3406  65.8193128  -1.3483922  65.8193128  -1.3483922
        24   0.00165663 0.0001224862  0.009693053 0.0005039613  0.009693053 0.0005039613 5.010298e-06    749.3484    101.2641  65.8144655  -1.3483486  65.8144655  -1.3483486
        25 0.0006742963 8.018602e-05  0.005160626 0.0003306154  0.005160626 0.0003306154 2.593547e-06    653.5068    100.9903  65.8155307  -1.3483516  65.8155307  -1.3483516
        26  0.001397013 0.0001134002  0.009009734 0.0004698471  0.009009734 0.0004698471 -4.332376e-06    400.6560    101.8090  65.8183409  -1.3483425  65.8183409  -1.3483425
        27 0.0003434115 5.670008e-05  0.002916167 0.0002268003  0.002916167 0.0002268003 3.597314e-06    801.3337    101.3228  65.8138877  -1.3483479  65.8138877  -1.3483479
        28 0.0007675554 8.661079e-05  0.006793654 0.0003600938  0.006793654 0.0003600938 1.067666e-06    308.0045    107.0095  65.8193706  -1.3482848  65.8193706  -1.3482848
        29 0.0003242936 5.670008e-05  0.004094774  0.000271924  0.004094774  0.000271924 -2.466214e-07    328.9911    114.0000  65.8191374  -1.3482071  65.8191374  -1.3482071
        30  0.002093022 0.0001388862   0.01488081 0.0005763733   0.01488081 0.0005763733 7.913504e-06    699.9568    151.1201  65.8150144  -1.3477946  65.8150144  -1.3477946
        31  0.001842398 0.0001267852  0.009182638 0.0004777633  0.009182638 0.0004777633 -3.259033e-06    550.4197    151.6073  65.8166764  -1.3477892  65.8166764  -1.3477892
        32 0.0008034596 8.661079e-05  0.005381235 0.0003600938  0.005381235 0.0003600938 -4.81867e-06    452.9747    149.9959  65.8177594  -1.3478071  65.8177594  -1.3478071
        33  0.001883222 0.0001349732   0.01643795 0.0005901531   0.01643795 0.0005901531 -3.566387e-07   1100.8289    151.1183  65.8105590  -1.3477947  65.8105590  -1.3477947
        34  0.001302534 0.0001134002  0.007874296 0.0004179428  0.007874296 0.0004179428 -4.439511e-06    502.3277    152.8888  65.8172109  -1.3477750  65.8172109  -1.3477750
        35 0.0006464524 8.018602e-05  0.006372686 0.0003630576  0.006372686 0.0003630576 4.903053e-06    301.6826    151.1621  65.8194409  -1.3477942  65.8194409  -1.3477942
        36  0.002135596  0.000146399  0.008681092 0.0004153708  0.008681092 0.0004153708 -4.617745e-06    435.9964    160.0039  65.8179481  -1.3476959  65.8179481  -1.3476959
        37  0.002271162  0.000146399   0.01041676 0.0005565087   0.01041676 0.0005565087 -4.178345e-06    459.5089    168.3347  65.8176868  -1.3476034  65.8176868  -1.3476034
        38 0.0004268569 6.547161e-05  0.006022132 0.0003122796  0.006022132 0.0003122796 2.995598e-06    134.2446    162.0038  65.8213018  -1.3476737  65.8213018  -1.3476737
        39 0.0005868801 7.319948e-05  0.005222567 0.0003105591  0.005222567 0.0003105591 -1.494905e-06     70.7922    162.3944  65.8220071  -1.3476694  65.8220071  -1.3476694
        40 0.0008684886 9.259083e-05  0.007660036 0.0004088701  0.007660036 0.0004088701 2.790087e-07    600.5168    168.2440  65.8161196  -1.3476044  65.8161196  -1.3476044
        41  0.004364719  0.000204435   0.02099038 0.0007718988   0.02099038 0.0007718988 9.359805e-08    603.0374    202.3562  65.8160916  -1.3472253  65.8160916  -1.3472253
        42  0.001410428 0.0001134002   0.01309501 0.0004932146   0.01309501 0.0004932146 -7.126102e-06   1215.5630    177.0889  65.8092839  -1.3475061  65.8092839  -1.3475061
        43  0.001213458 0.0001085724   0.01007982 0.0004280762   0.01007982 0.0004280762 -2.144554e-06   1159.5054    179.0162  65.8099069  -1.3474847  65.8099069  -1.3474847
        44  0.005309632 0.0002195984   0.02863512 0.0008881001   0.02863512 0.0008881001 7.463188e-06    705.1501    196.9424  65.8149567  -1.3472855  65.8149567  -1.3472855
        45  0.002193522  0.000142692    0.0186393 0.0006133051    0.0186393 0.0006133051 -2.07956e-06   1153.8574    191.7425  65.8099697  -1.3473433  65.8099697  -1.3473433
        46  0.004183204 0.0001936676   0.01620816  0.000648962   0.01620816  0.000648962 5.649329e-06    661.9680    198.2762  65.8154366  -1.3472707  65.8154366  -1.3472707
        47 0.0007965667 8.661079e-05  0.006348253 0.0003703633  0.006348253 0.0003703633 6.790641e-06    250.0174    200.2966  65.8200151  -1.3472482  65.8200151  -1.3472482
        48 0.0003351971 5.670008e-05  0.003174349 0.0002291506  0.003174349 0.0002291506 -1.282159e-06   1100.6655    201.6593  65.8105609  -1.3472331  65.8105609  -1.3472331
        49 0.0007193374 8.018602e-05  0.004331909 0.0003207441  0.004331909 0.0003207441 5.603735e-06    300.9861    201.5027  65.8194486  -1.3472348  65.8194486  -1.3472348
        50 0.0003368403 5.670008e-05  0.002828677 0.0002268003  0.002828677 0.0002268003 -1.856998e-06    488.3207    205.3322  65.8173666  -1.3471923  65.8173666  -1.3471923
        51 0.0007603262 8.661079e-05  0.006803116 0.0003674585  0.006803116 0.0003674585 2.703718e-06    344.4295    212.2835  65.8189658  -1.3471150  65.8189658  -1.3471150
        52 0.0005598167 7.319948e-05  0.004070261 0.0003018092  0.004070261 0.0003018092 4.538215e-06   1050.8004   1001.3989  65.8111151  -1.3383471  65.8111151  -1.3383471
        53 0.0008597456 9.259083e-05   0.01007052 0.0004217713   0.01007052 0.0004217713 -6.248675e-07   1171.3798   1244.7458  65.8097750  -1.3356432  65.8097750  -1.3356432
        54 0.0004307897 6.547161e-05  0.005324133 0.0002927979  0.005324133 0.0002927979 -1.172062e-05    626.5010   1240.5072  65.8158308  -1.3356903  65.8158308  -1.3356903
        55 0.0006670212 8.018602e-05   0.00651024  0.000343336   0.00651024  0.000343336 -7.216304e-06    570.9921   1237.4957  65.8164477  -1.3357238  65.8164477  -1.3357238
        56  0.001384888 0.0001134002    0.0109997 0.0004866527    0.0109997 0.0004866527 -7.034017e-06    586.9911   1229.8381  65.8162699  -1.3358089  65.8162699  -1.3358089
        57  0.001009415 9.820741e-05  0.007938065 0.0004192228  0.007938065 0.0004192228 -8.957684e-06    351.6594   1200.8901  65.8188854  -1.3361305  65.8188854  -1.3361305
        58 0.0008117701 8.661079e-05  0.009030954 0.0003817618  0.009030954 0.0003817618 -2.68319e-07    601.7392   1200.5612  65.8161060  -1.3361342  65.8161060  -1.3361342
        59  0.002429049 0.0001535445   0.01783879  0.000587423   0.01783879  0.000587423 -1.44083e-06     98.7313   1198.9458  65.8216965  -1.3361521  65.8216965  -1.3361521
        60 0.0006315203 8.018602e-05  0.007840247 0.0003630576  0.007840247 0.0003630576  7.26161e-07    861.8372   1195.8362  65.8132152  -1.3361867  65.8132152  -1.3361867
        61  0.003032859 0.0001701002   0.02083142 0.0007238981   0.02083142 0.0007238981 5.093362e-06    542.5496   1084.1357  65.8167639  -1.3374278  65.8167639  -1.3374278
        62  0.005343356  0.000222025   0.01407711 0.0005186326   0.01407711 0.0005186326 3.257082e-06    641.8172   1081.8978  65.8156606  -1.3374527  65.8156606  -1.3374527
        63  0.000895614 9.259083e-05  0.007137844 0.0004140788  0.007137844 0.0004140788 4.066252e-06    678.0005    956.4933  65.8152584  -1.3388460  65.8152584  -1.3388460
        64 0.0007768213 8.661079e-05  0.006835334 0.0003659974  0.006835334 0.0003659974 -4.378843e-07    548.2574    956.4343  65.8167004  -1.3388467  65.8167004  -1.3388467
        65  0.000327466 5.670008e-05  0.002743743 0.0002268003  0.002743743 0.0002268003 1.647602e-06    800.6714    950.6709  65.8138951  -1.3389107  65.8138951  -1.3389107
        66 0.0009056657 9.259083e-05  0.006169256 0.0003982482  0.006169256 0.0003982482 -2.291642e-07    500.8774    950.3745  65.8172270  -1.3389140  65.8172270  -1.3389140
        67 0.0005688384 7.319948e-05    0.0037556 0.0003000286    0.0037556 0.0003000286 2.052726e-06    151.2036    950.6138  65.8211133  -1.3389114  65.8211133  -1.3389114
        68  0.001166182 0.0001035197  0.008177673 0.0004367501  0.008177673 0.0004367501 -1.672067e-06   1146.5012    942.9903  65.8100514  -1.3389961  65.8100514  -1.3389961
        69  0.001445534 0.0001180306   0.01036256 0.0005050233   0.01036256 0.0005050233 -7.486622e-07    491.0786    934.2170  65.8173359  -1.3390936  65.8173359  -1.3390936
        70  0.001966209 0.0001349732  0.009984545 0.0005428619  0.009984545 0.0005428619 4.462394e-08    843.0846    928.6428  65.8134237  -1.3391555  65.8134237  -1.3391555
        71  0.006958412 0.0002535704   0.03980828  0.001106741   0.03980828  0.001106741 -2.294757e-06    401.3559    916.3016  65.8183331  -1.3392926  65.8183331  -1.3392926
        72 0.0009957872 9.820741e-05  0.007846685 0.0004255654  0.007846685 0.0004255654 -4.353598e-06    350.1248    902.0960  65.8189025  -1.3394505  65.8189025  -1.3394505
        73  0.001801641 0.0001309432   0.01411618 0.0005763733   0.01411618 0.0005763733 2.015003e-06    240.7075    902.4963  65.8201186  -1.3394460  65.8201186  -1.3394460
        74  0.001128895 0.0001035197   0.01081608 0.0004464568   0.01081608 0.0004464568 1.664519e-07   1100.4902    901.9949  65.8105628  -1.3394516  65.8105628  -1.3394516
        75 0.0008756343 9.259083e-05   0.00907346 0.0004140788   0.00907346 0.0004140788 1.832495e-06    822.8651    902.1378  65.8136484  -1.3394500  65.8136484  -1.3394500
        76  0.002556731 0.0001500143   0.01810688  0.000637298   0.01810688  0.000637298  5.41382e-07    701.7300    901.2512  65.8149947  -1.3394598  65.8149947  -1.3394598
        77 0.0005600284 7.319948e-05  0.004273361 0.0003053392  0.004273361 0.0003053392 -5.808277e-06    549.7908    900.8030  65.8166834  -1.3394648  65.8166834  -1.3394648
        78 0.0005264879 7.319948e-05  0.006615005 0.0003354422  0.006615005 0.0003354422 -1.234156e-06    302.3947    900.4103  65.8194330  -1.3394692  65.8194330  -1.3394692
        79  0.000922333 9.259083e-05   0.00781455 0.0004075575   0.00781455 0.0004075575 -2.416168e-06     99.5173    900.5096  65.8216878  -1.3394681  65.8216878  -1.3394681
        80  0.000341998 5.670008e-05  0.002809342 0.0002268003  0.002809342 0.0002268003 -2.667672e-06     51.6691    900.6730  65.8222196  -1.3394663  65.8222196  -1.3394663
        81 0.0005231071 7.319948e-05  0.006509516 0.0003354422  0.006509516 0.0003354422 -4.548075e-06    454.7945    898.6019  65.8177392  -1.3394893  65.8177392  -1.3394893
        82 0.0004574736 6.547161e-05  0.004233794 0.0002853841  0.004233794 0.0002853841 -4.563632e-07    720.4988    887.5013  65.8147861  -1.3396126  65.8147861  -1.3396126
        83  0.001382173 0.0001134002  0.007764181 0.0004698471  0.007764181 0.0004698471 -8.377317e-06    508.8433    869.0038  65.8171385  -1.3398182  65.8171385  -1.3398182
        84  0.000651587 8.018602e-05  0.006328716  0.000343336  0.006328716  0.000343336 -8.613998e-06    459.9981    868.5066  65.8176813  -1.3398237  65.8176813  -1.3398237
        85 0.0008815193 9.259083e-05  0.009895422 0.0004230398  0.009895422 0.0004230398 -9.106981e-06    341.3607    856.2512  65.8189999  -1.3399598  65.8189999  -1.3399598
        86  0.004011424 0.0001880529   0.02152181 0.0007472086   0.02152181 0.0007472086 -1.46964e-06    749.3034    853.0997  65.8144660  -1.3399949  65.8144660  -1.3399949
        87 0.0009901688 9.820741e-05   0.01018531 0.0004280762   0.01018531 0.0004280762 -5.514145e-06    691.6796    854.8913  65.8151064  -1.3399750  65.8151064  -1.3399750
        88  0.002569661 0.0001500143   0.01030379 0.0005507015   0.01030379 0.0005507015 -9.090167e-06    490.4164    853.6310  65.8173433  -1.3399890  65.8173433  -1.3399890
        89 0.0004510451 6.547161e-05  0.005432015 0.0003053392  0.005432015 0.0003053392 -5.633979e-07   1050.2590    851.7549  65.8111211  -1.3400098  65.8111211  -1.3400098
        90  0.001212705 0.0001035197  0.006634132 0.0004166588  0.006634132 0.0004166588 2.046912e-07     50.2253    850.6817  65.8222356  -1.3400217  65.8222356  -1.3400217
        91 0.0004271736 6.547161e-05  0.005175578 0.0002927979  0.005175578 0.0002927979 -1.309375e-06    249.5037    850.4999  65.8200208  -1.3400237  65.8200208  -1.3400237
        92 0.0008412962 8.661079e-05  0.004266533 0.0003417718  0.004266533 0.0003417718 -9.374545e-06    402.9962    849.0241  65.8183149  -1.3400401  65.8183149  -1.3400401
        93  0.001345985 0.0001134002  0.009419942  0.000475515  0.009419942  0.000475515 -3.419269e-06    932.0930    846.8465  65.8124344  -1.3400643  65.8124344  -1.3400643
        94 0.0009053323 9.259083e-05  0.008543118 0.0004127828  0.008543118 0.0004127828 -1.015463e-05    353.0010    845.3780  65.8188705  -1.3400807  65.8188705  -1.3400807
        95  0.001763747 0.0001267852   0.01305493 0.0005268329   0.01305493 0.0005268329 3.896389e-06   1127.3326    840.0737  65.8102645  -1.3401396  65.8102645  -1.3401396
        96 0.0009137439 9.259083e-05  0.007344919 0.0004022643  0.007344919 0.0004022643 -2.917359e-07   1043.9948    838.3794  65.8111907  -1.3401584  65.8111907  -1.3401584
        97 0.0007753299 8.661079e-05  0.005334883 0.0003556018  0.005334883 0.0003556018 -1.047875e-05    575.2828    813.4280  65.8164001  -1.3404357  65.8164001  -1.3404357
        98 0.0003277413 5.670008e-05  0.005292734  0.000271924  0.005292734  0.000271924 -5.833981e-06    256.9980    805.0000  65.8199375  -1.3405293  65.8199375  -1.3405293
        99  0.001892105 0.0001349732   0.01308733 0.0005155239   0.01308733 0.0005155239 2.999112e-06   1070.5480    802.1381  65.8108956  -1.3405611  65.8108956  -1.3405611
       100   0.00219059 0.0001349732  0.009460852 0.0004932146  0.009460852 0.0004932146 -2.905944e-06    199.8054    801.1050  65.8205732  -1.3405726  65.8205732  -1.3405726
       101 0.0003376264 5.670008e-05  0.002715345 0.0002268003  0.002715345 0.0002268003 -9.907714e-06    351.3304    800.3307  65.8188891  -1.3405812  65.8188891  -1.3405812
       102 0.0006395967 8.018602e-05   0.00604263 0.0003479864   0.00604263 0.0003479864 -9.638631e-06    648.1736    802.8263  65.8155899  -1.3405535  65.8155899  -1.3405535
       103  0.002133067 0.0001349732  0.005705211 0.0004391969  0.005705211 0.0004391969 -1.089303e-05    615.8936    793.9931  65.8159487  -1.3406516  65.8159487  -1.3406516
       104  0.001587688 0.0001224862   0.01118377 0.0005060832   0.01118377 0.0005060832 -1.208104e-06    192.1544    782.0680  65.8206582  -1.3407841  65.8206582  -1.3407841
       105  0.002759848  0.000160372   0.01964551 0.0006423228   0.01964551 0.0006423228 -6.333153e-06    557.8604    770.8668  65.8165937  -1.3409086  65.8165937  -1.3409086
       106  0.001278423 0.0001085724  0.005732602 0.0004318149  0.005732602 0.0004318149 3.445501e-07    185.3501    762.4708  65.8207338  -1.3410018  65.8207338  -1.3410018
       107  0.001437038 0.0001180306    0.0145815 0.0005369071    0.0145815 0.0005369071 -4.443046e-06    737.7737    759.6094  65.8145941  -1.3410336  65.8145941  -1.3410336
       108  0.004220562 0.0001851817   0.01723614 0.0006952024   0.01723614 0.0006952024 -6.774315e-06    651.1533    750.9254  65.8155568  -1.3411301  65.8155568  -1.3411301
       109  0.001351261 0.0001134002  0.008866736 0.0004942998  0.008866736 0.0004942998 -3.843542e-06    800.6715    752.8342  65.8138950  -1.3411089  65.8138950  -1.3411089
       110 0.0006705017 8.018602e-05    0.0053625 0.0003306154    0.0053625 0.0003306154 -5.563897e-06    699.5008    752.9940  65.8150195  -1.3411072  65.8150195  -1.3411072
       111  0.002721473 0.0001535445  0.006711122 0.0004629542  0.006711122 0.0004629542 -7.556839e-06    619.1568    751.8519  65.8159124  -1.3411198  65.8159124  -1.3411198
       112  0.001974716 0.0001388863   0.01447018  0.000491037   0.01447018  0.000491037 -3.557391e-06    884.1961    746.4432  65.8129667  -1.3411799  65.8129667  -1.3411799
       113 0.0006862127 8.018602e-05  0.006196949 0.0003479864  0.006196949 0.0003479864 3.523489e-06    101.4924    750.6718  65.8216658  -1.3411329  65.8216658  -1.3411329
       114  0.001138183 0.0001035197  0.009507326   0.00044405  0.009507326   0.00044405 -1.405578e-06    546.6984    742.6940  65.8167177  -1.3412216  65.8167177  -1.3412216
       115  0.003035247  0.000163679   0.01575989 0.0006398154   0.01575989 0.0006398154 7.691892e-07    445.5716    743.2614  65.8178417  -1.3412153  65.8178417  -1.3412153
       116  0.001611776 0.0001224862   0.01064228 0.0005175985   0.01064228 0.0005175985 -5.647711e-06    656.2712    735.9371  65.8154999  -1.3412967  65.8154999  -1.3412967
       117 0.0008012085 8.661079e-05  0.004573932 0.0003417718  0.004573932 0.0003417718 -4.23753e-06    812.0054    732.0032  65.8137691  -1.3413404  65.8137691  -1.3413404
       118  0.001525615 0.0001180306   0.01181625 0.0004844456   0.01181625 0.0004844456 1.697416e-06    493.9703    713.0125  65.8173038  -1.3415514  65.8173038  -1.3415514
       119 0.0009730862 9.259083e-05  0.005174486 0.0003732456  0.005174486 0.0003732456 3.134417e-06    636.9963    706.5152  65.8157142  -1.3416236  65.8157142  -1.3416236
       120  0.002817861  0.000163679   0.01600593 0.0006796129   0.01600593 0.0006796129 1.068044e-06    543.6423    703.0101  65.8167517  -1.3416625  65.8167517  -1.3416625
       121  0.001825649 0.0001309432   0.01068635 0.0005398927   0.01068635 0.0005398927 -8.322976e-07    899.1954    700.7015  65.8128000  -1.3416882  65.8128000  -1.3416882
       122 0.0008282918 8.661079e-05  0.004574387 0.0003448931  0.004574387 0.0003448931 1.932711e-06    451.6993    700.5648  65.8177736  -1.3416897  65.8177736  -1.3416897
       123 0.0006898359 8.018602e-05  0.005044727 0.0003257171  0.005044727 0.0003257171 -8.213838e-07     51.0077    700.5084  65.8222269  -1.3416903  65.8222269  -1.3416903
       124     0.006821 0.0002471499   0.01771873 0.0007815566   0.01771873 0.0007815566 5.610174e-06    673.4549    692.6436  65.8153090  -1.3417777  65.8153090  -1.3417777
       125 0.0004369367 6.547161e-05  0.004584804 0.0002891148  0.004584804 0.0002891148 -9.062095e-07    724.4989    693.4977  65.8147416  -1.3417682  65.8147416  -1.3417682
       126 0.0006494724 8.018602e-05  0.005722998  0.000343336  0.005722998  0.000343336 2.550064e-06    368.0043    693.5023  65.8187038  -1.3417682  65.8187038  -1.3417682
       127  0.008549827 0.0002556748    0.0240267 0.0009125013    0.0240267 0.0009125013 1.369162e-05    637.0948    663.3436  65.8157131  -1.3421033  65.8157131  -1.3421033
       128 0.0008894028 9.259083e-05  0.005580184 0.0003928296  0.005580184 0.0003928296 2.201015e-06    351.5016    659.9958  65.8188872  -1.3421405  65.8188872  -1.3421405
       129  0.002641794 0.0001569954   0.01582764   0.00066042   0.01582764   0.00066042 -6.226752e-06     28.8322    656.4208  65.8224734  -1.3421802  65.8224734  -1.3421802
       130 0.0007714387 8.661079e-05  0.009229785 0.0003914633  0.009229785 0.0003914633  1.98718e-06    537.2908    655.5620  65.8168223  -1.3421897  65.8168223  -1.3421897
       131   0.01408275  0.000343336   0.04648897  0.001005261   0.04648897  0.001005261 1.271234e-05    649.3388    652.9941  65.8155770  -1.3422183  65.8155770  -1.3422183
       132  0.001737154 0.0001224862  0.008565807 0.0004822285  0.008565807 0.0004822285 -1.754352e-06    851.8287    650.1059  65.8133265  -1.3422504  65.8133265  -1.3422504
       133 0.0005533902 7.319948e-05  0.004356369  0.000308829  0.004356369  0.000308829 2.700106e-06   1151.1897    651.6069  65.8099993  -1.3422337  65.8099993  -1.3422337
       134  0.005413898 0.0002291506   0.07368717  0.001286729   0.02331601  0.001121746 1.182033e-05    589.9166    635.3047  65.8162374  -1.3424148  65.8162374  -1.3424148
       135  0.004677464 0.0001936676   0.01440293 0.0006740714   0.01038896  0.000801478 1.466995e-05    603.4159    643.9567  65.8160874  -1.3423187  65.8160874  -1.3423187
       136  0.005413876 0.0002096114    0.0252685 0.0008045285    0.0123428 0.0008764146  1.31413e-05    596.1669    640.9547  65.8161679  -1.3423520  65.8161679  -1.3423520
       137 0.0006821251 8.018602e-05   0.00626439 0.0003402004   0.00626439 0.0003402004 5.978887e-07    492.5065    645.0083  65.8173200  -1.3423070  65.8173200  -1.3423070
       138  0.001901408 0.0001267852  0.005235628 0.0004088701  0.005235628 0.0004088701 1.491571e-05    621.6234    644.5287  65.8158850  -1.3423123  65.8158850  -1.3423123
       139  0.001173304 0.0001035197  0.007177313  0.000420499  0.007177313  0.000420499 1.103055e-06    499.9048    650.7908  65.8172378  -1.3422427  65.8172378  -1.3422427
       140  0.001583631 0.0001180306   0.01120783 0.0004743868   0.01120783 0.0004743868 9.000891e-06    577.3633    641.6158  65.8163769  -1.3423447  65.8163769  -1.3423447
       141  0.001055333 9.820741e-05   0.00757319 0.0003941913   0.00757319 0.0003941913 1.809362e-06    537.9849    642.0112  65.8168146  -1.3423403  65.8168146  -1.3423403
       142  0.001653322 0.0001224862   0.01557072 0.0005388993   0.01557072 0.0005388993 1.108021e-05    668.6480    637.7184  65.8153624  -1.3423880  65.8153624  -1.3423880
       143  0.001008865 9.820741e-05  0.007881974 0.0004280762  0.007881974 0.0004280762 1.023702e-06    517.6634    636.8873  65.8170404  -1.3423972  65.8170404  -1.3423972
       144   0.06235319 0.0004488507   0.03266119 0.0007216741   0.07117371 0.0009765571 1.467089e-05    625.1047    626.4008  65.8158463  -1.3425137  65.8158463  -1.3425137
       145   0.03733144 0.0004855504   0.04114237  0.000822314   0.05880007  0.001653751  1.40922e-05    627.2662    607.3642  65.8158223  -1.3427253  65.8158223  -1.3427253
       146  0.007687824  0.000257762   0.01265494  0.000473256   0.02058511  0.001138096 1.246752e-05    652.2725    628.4821  65.8155444  -1.3424906  65.8155444  -1.3424906
       147  0.008306339 0.0002618864   0.05336026  0.001097016   0.01970684  0.001111343 1.156985e-05    663.4882    624.4012  65.8154197  -1.3425360  65.8154197  -1.3425360
       148  0.007025146 0.0002383202   0.05254171  0.001052648   0.01588192 0.0009932051 1.165146e-05    662.3352    617.9933  65.8154325  -1.3426072  65.8154325  -1.3426072
       149   0.01344546 0.0003464432   0.01506464 0.0004641101   0.03991521  0.001573906  1.35584e-05    597.9666    625.3729  65.8161479  -1.3425252  65.8161479  -1.3425252
       150  0.009866789 0.0002909622   0.07803086  0.001294203   0.02587388  0.001276589  1.15777e-05    588.7108    623.7798  65.8162508  -1.3425429  65.8162508  -1.3425429
       151  0.002420136 0.0001500143   0.01542545 0.0006254166   0.01542545 0.0006254166  4.48368e-07    983.3717    615.5902  65.8118645  -1.3426339  65.8118645  -1.3426339
       152  0.001664295 0.0001267852   0.01019935 0.0005247949   0.01019935 0.0005247949 2.134097e-06    733.4384    613.3550  65.8146423  -1.3426587  65.8146423  -1.3426587
       153 0.0003318282 5.670008e-05  0.003695607  0.000240558  0.003695607  0.000240558 -6.87183e-06     62.3432    614.3202  65.8221009  -1.3426480  65.8221009  -1.3426480
       154  0.001393858 0.0001085724   0.01030731   0.00044405   0.01030731   0.00044405 1.061098e-05    673.9267    612.3370  65.8153037  -1.3426700  65.8153037  -1.3426700
       155  0.001442414 0.0001180306   0.01121468 0.0005039613   0.01121468 0.0005039613 -8.10779e-06     44.0063    613.3121  65.8223047  -1.3426592  65.8223047  -1.3426592
       156  0.003862683 0.0001880529   0.02694589 0.0008536453   0.02694589 0.0008536453 1.167021e-05    658.2382    606.5275  65.8154781  -1.3427346  65.8154781  -1.3427346
       157 0.0009310602 9.259083e-05  0.005924656 0.0003789443  0.005924656 0.0003789443 -2.330322e-06    476.1133    608.8530  65.8175022  -1.3427087  65.8175022  -1.3427087
       158 0.0003281259 5.670008e-05  0.003452223 0.0002360612  0.003452223 0.0002360612 -1.606498e-06    905.3387    607.3229  65.8127318  -1.3427257  65.8127318  -1.3427257
       159 0.0007545414 8.661079e-05  0.006805819 0.0003600938  0.006805819 0.0003600938 -2.750648e-06    797.9979    604.9988  65.8139248  -1.3427515  65.8139248  -1.3427515
       160  0.002207945  0.000146399    0.0279727 0.0007089399    0.0279727 0.0007089399 1.040668e-05    668.6805    603.6459  65.8153620  -1.3427666  65.8153620  -1.3427666
       161  0.001032108 9.820741e-05  0.007516611 0.0004243045  0.007516611 0.0004243045 2.564199e-06    551.6765    601.4526  65.8166624  -1.3427909  65.8166624  -1.3427909
       162  0.008264489 0.0002659469   0.02404207 0.0008281576   0.02404207 0.0008281576 4.934808e-06    710.9014    598.2078  65.8148928  -1.3428270  65.8148928  -1.3428270
       163   0.00407949 0.0001880529   0.01329206 0.0006364568   0.01329206 0.0006364568 1.098912e-05    651.7531    599.5768  65.8155502  -1.3428118  65.8155502  -1.3428118
       164  0.007557879 0.0002449723   0.03219329 0.0008722725   0.03219329 0.0008722725 1.220858e-05    601.6482    598.9388  65.8161070  -1.3428189  65.8161070  -1.3428189
       165 0.0007906808 8.661079e-05  0.006237965 0.0003703633  0.006237965 0.0003703633 -2.31628e-06    383.0088    600.7037  65.8185370  -1.3427993  65.8185370  -1.3427993
       166 0.0003451862 5.670008e-05  0.002821792 0.0002268003  0.002821792 0.0002268003 7.522553e-07    542.3325    598.3262  65.8167663  -1.3428257  65.8167663  -1.3428257
       167  0.000647141 8.018602e-05  0.004682725 0.0003289907  0.004682725 0.0003289907 4.032955e-06    563.0040    595.4913  65.8165365  -1.3428572  65.8165365  -1.3428572
       168   0.01088651  0.000307089   0.03712823  0.001100429   0.03712823  0.001100429 1.160063e-05    615.0204    591.5738  65.8159584  -1.3429007  65.8159584  -1.3429007
       169  0.001273747 0.0001134002   0.01306063 0.0005206948   0.01306063 0.0005206948  2.35197e-06   1145.3270    589.5132  65.8100645  -1.3429236  65.8100645  -1.3429236
       170  0.001274299 0.0001085724  0.006994529 0.0004391969  0.006994529 0.0004391969  2.35197e-06   1132.6483    585.4325  65.8102054  -1.3429689  65.8102054  -1.3429689
       171 0.0006683421 8.018602e-05  0.005138202 0.0003370357  0.005138202 0.0003370357 -1.636736e-06    865.8240    574.8309  65.8131709  -1.3430867  65.8131709  -1.3430867
       172  0.002349989 0.0001500143   0.01915959 0.0006636573   0.01915959 0.0006636573 2.591334e-06    581.6766    566.3463  65.8163290  -1.3431810  65.8163290  -1.3431810
       173  0.003521213 0.0001822652   0.01695731 0.0007074267   0.01695731 0.0007074267 -4.851123e-06    384.4339    558.6025  65.8185212  -1.3432671  65.8185212  -1.3432671
       174 0.0007829751 8.661079e-05  0.006703421 0.0003845586  0.006703421 0.0003845586 5.392953e-06    228.4157    560.1481  65.8202552  -1.3432499  65.8202552  -1.3432499
       175 0.0008038246 8.661079e-05   0.00653628 0.0003556018   0.00653628 0.0003556018 3.223156e-06    255.7060    559.5687  65.8199519  -1.3432563  65.8199519  -1.3432563
       176  0.001148863 0.0001085724   0.01143989 0.0005448323   0.01143989 0.0005448323 1.627895e-06    600.0953    551.7391  65.8161243  -1.3433433  65.8161243  -1.3433433
       177 0.0006937407 8.018602e-05  0.004367806 0.0003139908  0.004367806 0.0003139908 -3.157882e-06    488.9897    553.4953  65.8173591  -1.3433238  65.8173591  -1.3433238
       178  0.001580738 0.0001224862   0.01018197 0.0005060832   0.01018197 0.0005060832 3.281671e-06    251.2806    551.9265  65.8200011  -1.3433412  65.8200011  -1.3433412
       179  0.002790443 0.0001535445   0.01972562 0.0006481358   0.01972562 0.0006481358 1.442067e-06    752.7698    551.4920  65.8144274  -1.3433461  65.8144274  -1.3433461
       180  0.002585716 0.0001535445   0.01609697 0.0006423228   0.01609697 0.0006423228  1.97815e-06    614.1439    549.5836  65.8159681  -1.3433673  65.8159681  -1.3433673
       181  0.003299629 0.0001762877   0.01388661 0.0005991636   0.01388661 0.0005991636 -1.602636e-06    863.0148    545.2712  65.8132022  -1.3434152  65.8132022  -1.3434152
       182 0.0004451592 6.547161e-05  0.003714529 0.0002853841  0.003714529 0.0002853841 -4.342523e-06    449.4965    550.5197  65.8177981  -1.3433569  65.8177981  -1.3433569
       183 0.0007903811 8.661079e-05  0.003706141 0.0002777725  0.003706141 0.0002777725 1.291865e-06    701.4940    534.0125  65.8149973  -1.3435403  65.8149973  -1.3435403
       184 0.0005507916 7.319948e-05  0.004345857  0.000308829  0.004345857  0.000308829 5.462495e-07    754.2007    531.6026  65.8144115  -1.3435671  65.8144115  -1.3435671
       185  0.004527736 0.0001908809   0.01021158 0.0005408842   0.01021158 0.0005408842 -3.988857e-06    594.0621    514.3537  65.8161913  -1.3437587  65.8161913  -1.3437587
       186  0.001146158 0.0001035197  0.007337126 0.0004243045  0.007337126 0.0004243045 -2.380437e-06    702.5045    501.9905  65.8149861  -1.3438961  65.8149861  -1.3438961
       187  0.002075253 0.0001349732  0.009147111 0.0005050233  0.009147111 0.0005050233 2.679762e-06   1150.6208    501.7137  65.8100056  -1.3438991  65.8100056  -1.3438991
       188  0.001801967 0.0001224862  0.007012633 0.0004416301  0.007012633 0.0004416301 -5.487416e-06    600.4803    501.4918  65.8161200  -1.3439016  65.8161200  -1.3439016
       189  0.001262475 0.0001085724  0.007539356 0.0004476554  0.007539356 0.0004476554 1.345133e-07   1050.4641    500.1903  65.8111188  -1.3439161  65.8111188  -1.3439161
       190  0.000563564 7.319948e-05  0.004884508 0.0003173854  0.004884508 0.0003173854 -2.034301e-06    954.2010    501.3897  65.8121887  -1.3439028  65.8121887  -1.3439028
       191 0.0008271127 8.661079e-05   0.00453047 0.0003402004   0.00453047 0.0003402004 -5.048217e-06    620.9726    501.2867  65.8158923  -1.3439039  65.8158923  -1.3439039
       192  0.002805572  0.000163679   0.01961575 0.0005901531   0.01961575 0.0005901531 -6.295008e-06    544.4802    496.6289  65.8167424  -1.3439557  65.8167424  -1.3439557
       193  0.001461939 0.0001180306  0.006874092 0.0004641101  0.006874092 0.0004641101 -6.764621e-06    557.3733    490.4690  65.8165991  -1.3440241  65.8165991  -1.3440241
       194 0.0005323577 7.319948e-05  0.005624435 0.0003289907  0.005624435 0.0003289907 -6.515904e-06    514.2009    490.3968  65.8170789  -1.3440249  65.8170789  -1.3440249
       195  0.001068431 9.820741e-05   0.00535424 0.0003982482   0.00535424 0.0003982482 -6.065276e-06    443.1285    479.7792  65.8178688  -1.3441429  65.8178688  -1.3441429
       196  0.001857845 0.0001349732   0.01090738 0.0004617953   0.01090738 0.0004617953 -4.945124e-06    701.9279    477.6554  65.8149925  -1.3441665  65.8149925  -1.3441665
       197  0.004647567 0.0002070394   0.02920553 0.0008874965   0.02920553 0.0008874965 -1.815506e-07   1051.8947    459.8738  65.8111029  -1.3443640  65.8111029  -1.3443640
       198 0.0003489666 5.670008e-05  0.002569331 0.0002268003  0.002569331 0.0002268003 -7.946895e-06    628.6611    458.3266  65.8158068  -1.3443812  65.8158068  -1.3443812
       199 0.0006371225 8.018602e-05  0.008269598 0.0003556018  0.008269598 0.0003556018 1.957872e-06   1151.4985    456.9869  65.8099959  -1.3443961  65.8099959  -1.3443961
       200 0.0008289273 8.661079e-05  0.005736958 0.0003556018  0.005736958 0.0003556018 -4.996983e-06   1208.2745    455.4322  65.8093649  -1.3444134  65.8093649  -1.3444134
       201  0.002993017  0.000163679   0.01014939  0.000566055   0.01014939  0.000566055 6.698396e-06    181.1338    452.6349  65.8207807  -1.3444445  65.8207807  -1.3444445
       202  0.002125117 0.0001388862   0.01495226 0.0005846801   0.01495226 0.0005846801 -1.215904e-08   1051.1152    451.8532  65.8111116  -1.3444532  65.8111116  -1.3444532
       203 0.0009988287 9.820741e-05  0.006374076 0.0004114827  0.006374076 0.0004114827 -6.064415e-06    351.3233    451.8705  65.8188892  -1.3444530  65.8188892  -1.3444530
       204 0.0005804269 7.319948e-05  0.004435479 0.0003105591  0.004435479 0.0003105591 -7.76959e-06    648.3999    451.2125  65.8155874  -1.3444603  65.8155874  -1.3444603
       205 0.0005413184 7.319948e-05  0.005761803 0.0003289907  0.005761803 0.0003289907 -3.626023e-06    802.8013    450.4020  65.8138714  -1.3444693  65.8138714  -1.3444693
       206 0.0003232435 5.670008e-05  0.003778778  0.000240558  0.003778778  0.000240558 -4.993946e-06    400.6706    450.6560  65.8183407  -1.3444665  65.8183407  -1.3444665
       207  0.001307247 0.0001134002  0.007676432 0.0004698471  0.007676432 0.0004698471 -8.134546e-06    604.7639    449.0132  65.8160724  -1.3444847  65.8160724  -1.3444847
       208  0.002797802 0.0001569954   0.01466332 0.0006330803   0.01466332 0.0006330803 -4.120103e-06    890.9011    436.8017  65.8128922  -1.3446204  65.8128922  -1.3446204
       209  0.003668208 0.0001880529   0.02244796 0.0007089399   0.02244796 0.0007089399 -7.557079e-07   1008.4913    400.8154  65.8115853  -1.3450202  65.8115853  -1.3450202
       210 0.0005541407 7.319948e-05  0.004424418 0.0003105591  0.004424418 0.0003105591 -2.93138e-06    270.2102    403.5970  65.8197907  -1.3449893  65.8197907  -1.3449893
       211 0.0004337468 6.547161e-05  0.004218099 0.0002853841  0.004218099 0.0002853841 -5.028839e-06   1200.5068    401.4991  65.8094512  -1.3450126  65.8094512  -1.3450126
       212  0.002222998  0.000142692   0.01431215 0.0005892445   0.01431215 0.0005892445 -6.156275e-06    349.3564    400.7393  65.8189110  -1.3450211  65.8189110  -1.3450211
       213 0.0006541156 8.018602e-05  0.007866818 0.0003732456  0.007866818 0.0003732456 -4.505933e-06    901.4855    400.6743  65.8127746  -1.3450218  65.8127746  -1.3450218
       214 0.0006673135 8.018602e-05  0.004730866 0.0003240679  0.004730866 0.0003240679 -6.857456e-06    606.4976    394.5031  65.8160531  -1.3450904  65.8160531  -1.3450904
       215 0.0003218309 5.670008e-05  0.003501785  0.000240558  0.003501785  0.000240558 -3.625998e-06    395.6692    394.6716  65.8183963  -1.3450885  65.8183963  -1.3450885
       216 0.0005575172 7.319948e-05  0.005058568 0.0003240679  0.005058568 0.0003240679 -7.705736e-06    647.5942    402.7826  65.8155964  -1.3449984  65.8155964  -1.3449984
       217 0.0007899757 8.661079e-05  0.005974411 0.0003703633  0.005974411 0.0003703633 -1.814445e-07    519.0008    388.2946  65.8170256  -1.3451594  65.8170256  -1.3451594
       218  0.003835321 0.0001880529   0.01844257 0.0007663255   0.01844257 0.0007663255 -4.750736e-06    701.0409    354.9836  65.8150024  -1.3455295  65.8150024  -1.3455295
       219  0.003162941  0.000160372   0.01264037 0.0005946754   0.01264037 0.0005946754 -4.020063e-06   1151.3140    351.8826  65.8099979  -1.3455639  65.8099979  -1.3455639
       220  0.002307633  0.000146399    0.0122704 0.0005763733    0.0122704 0.0005763733 -4.466181e-06    651.1848    351.4362  65.8155565  -1.3455689  65.8155565  -1.3455689
       221  0.002003066 0.0001388862   0.01526436 0.0005964747   0.01526436 0.0005964747 -5.155915e-06   1201.2720    349.9032  65.8094427  -1.3455859  65.8094427  -1.3455859
       222  0.001867872 0.0001309432  0.009365505 0.0004996904  0.009365505 0.0004996904 -3.920176e-06   1100.5055    350.9895  65.8105626  -1.3455739  65.8105626  -1.3455739
       223  0.001599915 0.0001224862   0.01290614 0.0005144835   0.01290614 0.0005144835 -4.561834e-06    750.1660    351.0822  65.8144564  -1.3455728  65.8144564  -1.3455728
       224  0.001853492 0.0001349732   0.01467031 0.0005726427   0.01467031 0.0005726427 -6.193407e-07    150.4049    350.9396  65.8211222  -1.3455744  65.8211222  -1.3455744
       225  0.001709696 0.0001267852    0.0136599 0.0005754429    0.0136599 0.0005754429 -3.887081e-06   1013.0446    348.3646  65.8115347  -1.3456030  65.8115347  -1.3456030
       226  0.002692277  0.000163679   0.01973279 0.0005883344   0.01973279 0.0005883344 -6.497208e-06    860.1495    348.9403  65.8132340  -1.3455966  65.8132340  -1.3455966
       227  0.002059123 0.0001349732  0.006383056  0.000455957  0.006383056  0.000455957 -4.143685e-06    646.6258    344.0237  65.8156071  -1.3456513  65.8156071  -1.3456513
       228  0.001293203 0.0001134002   0.01051025 0.0004811161   0.01051025 0.0004811161  7.64881e-07    520.0001    338.5043  65.8170145  -1.3457126  65.8170145  -1.3457126
       229 0.0004235285 6.547161e-05   0.00506201 0.0002927979   0.00506201 0.0002927979 -3.665423e-06   1004.4989    310.5031  65.8116297  -1.3460237  65.8116297  -1.3460237
       230 0.0008678513 9.259083e-05  0.006162094 0.0003941913  0.006162094 0.0003941913 -2.858648e-06    597.8696    301.1450  65.8161490  -1.3461277  65.8161490  -1.3461277
       231 0.0005249769 7.319948e-05  0.006688783 0.0003354422  0.006688783 0.0003354422 -1.013723e-06    552.5911    301.6046  65.8166523  -1.3461226  65.8166523  -1.3461226
       232 0.0004319383 6.547161e-05  0.005549749 0.0002927979  0.005549749 0.0002927979 -3.545433e-06   1004.5039    295.5005  65.8116296  -1.3461904  65.8116296  -1.3461904
       233 0.0006534929 8.018602e-05  0.007923394 0.0003630576  0.007923394 0.0003630576 -7.921807e-07    550.0045    267.8336  65.8166810  -1.3464978  65.8166810  -1.3464978
       234 0.0004365753 6.547161e-05  0.004967611 0.0002927979  0.004967611 0.0002927979 -2.907858e-06    957.5060    253.5008  65.8121520  -1.3466571  65.8121520  -1.3466571
       235 0.0003222161 5.670008e-05  0.003421248  0.000240558  0.003421248  0.000240558 3.590982e-06    750.3293    253.3357  65.8144546  -1.3466589  65.8144546  -1.3466589
       236   0.00352785 0.0001732216  0.009583834  0.000566055  0.009583834  0.000566055 1.755095e-08    630.3301    251.8370  65.8157882  -1.3466756  65.8157882  -1.3466756
       237  0.001024195 9.820741e-05   0.00748359 0.0003941913   0.00748359 0.0003941913 -2.743856e-06   1000.9948    251.9889  65.8116686  -1.3466739  65.8116686  -1.3466739
       238  0.000995319 9.820741e-05   0.01181564 0.0004367501   0.01181564 0.0004367501 -5.351179e-07    349.3369    252.1152  65.8189113  -1.3466725  65.8189113  -1.3466725
       239  0.001160924 0.0001035197  0.009419667 0.0004355215  0.009419667 0.0004355215 -6.828304e-07    450.8062    250.9874  65.8177835  -1.3466850  65.8177835  -1.3466850
       240   0.00341921 0.0001732216   0.01254697 0.0006106785   0.01254697 0.0006106785 -5.099715e-06     48.5523    250.4170  65.8222542  -1.3466913  65.8222542  -1.3466913
       241  0.001994374 0.0001388862   0.01782954   0.00060273   0.01782954   0.00060273 -1.988916e-06   1052.3911    247.0862  65.8110974  -1.3467283  65.8110974  -1.3467283
       242  0.001493544 0.0001180306  0.009009086 0.0004800011  0.009009086 0.0004800011 -3.719732e-06    451.8576   1201.6031  65.8177718  -1.3361226  65.8177718  -1.3361226
       243  0.001606118 0.0001224862  0.008201315 0.0004866527  0.008201315 0.0004866527 1.028416e-06    638.9919   1137.6357  65.8156920  -1.3368334  65.8156920  -1.3368334
       244  0.002324186 0.0001500143   0.01290022 0.0006423228   0.01290022 0.0006423228   2.9198e-06   1200.3805   1201.5160  65.8094526  -1.3361236  65.8094526  -1.3361236
       245 0.0009438397 9.259083e-05  0.007241077 0.0003955482  0.007241077 0.0003955482 -4.803496e-06    443.0125   1203.4955  65.8178701  -1.3361016  65.8178701  -1.3361016
       246  0.001503971 0.0001180306  0.008208673 0.0004721225  0.008208673 0.0004721225 -4.22594e-06    652.6078   1200.3982  65.8155407  -1.3361360  65.8155407  -1.3361360
       247  0.005079281 0.0002121522   0.01879767 0.0006835436   0.01879767 0.0006835436 -2.741332e-06   1100.4207   1201.2074  65.8105636  -1.3361270  65.8105636  -1.3361270
       248  0.001673234 0.0001267852   0.01035629 0.0005144835   0.01035629 0.0005144835  -2.5741e-07    300.9411   1099.7484  65.8194491  -1.3372543  65.8194491  -1.3372543
       249 0.0006520997 8.018602e-05   0.00719892 0.0003556018   0.00719892 0.0003556018  -3.6439e-06    602.8278   1212.8301  65.8160939  -1.3359979  65.8160939  -1.3359979
       250 0.0004516168 6.547161e-05  0.004189369 0.0002853841  0.004189369 0.0002853841 1.092743e-06     52.5128   1099.4979  65.8222102  -1.3372571  65.8222102  -1.3372571
       251 0.0004321987 6.547161e-05  0.005193935 0.0002927979  0.005193935 0.0002927979 9.229052e-07    840.4943   1100.4933  65.8134525  -1.3372460  65.8134525  -1.3372460
       252 0.0004156917 6.547161e-05  0.005014778 0.0002927979  0.005014778 0.0002927979 2.417004e-06   1090.5021   1137.0051  65.8106738  -1.3368404  65.8106738  -1.3368404
       253 0.0009179106 9.259083e-05  0.008952243 0.0004217713  0.008952243 0.0004217713 -2.363992e-06    399.6367   1150.7377  65.8183522  -1.3366878  65.8183522  -1.3366878
       254 0.0003138022 5.670008e-05   0.00431521  0.000240558   0.00431521  0.000240558  -2.2607e-06   1218.3333   1143.6655  65.8092531  -1.3367663  65.8092531  -1.3367663
       255  0.001562377 0.0001224862  0.008461242 0.0004062406  0.008461242 0.0004062406 -3.406619e-06    301.2506   1150.7539  65.8194457  -1.3366876  65.8194457  -1.3366876
       256  0.002291557  0.000146399   0.01285745 0.0005964747   0.01285745 0.0005964747 3.213779e-06    893.6465   1145.0460  65.8128617  -1.3367510  65.8128617  -1.3367510
       257  0.001153177 0.0001035197  0.007697219 0.0004305723  0.007697219 0.0004305723 -1.163589e-06    651.5215   1151.2136  65.8155527  -1.3366825  65.8155527  -1.3366825
       258 0.0006787533 8.018602e-05  0.005372535 0.0003306154  0.005372535 0.0003306154 5.178113e-06    598.4958   1155.4984  65.8161421  -1.3366349  65.8161421  -1.3366349
       259  0.002444647  0.000146399   0.01311045 0.0005828444   0.01311045 0.0005828444 1.817363e-06    850.9622   1150.9072  65.8133361  -1.3366859  65.8133361  -1.3366859
       260  0.008596535 0.0002699464   0.02179161 0.0008288043   0.02179161 0.0008288043 5.279676e-06    548.6787   1152.1477  65.8166957  -1.3366721  65.8166957  -1.3366721
       261 0.0009793261 9.820741e-05    0.0116005 0.0004355215    0.0116005 0.0004355215 -4.326834e-06    698.5563   1154.7914  65.8150300  -1.3366427  65.8150300  -1.3366427
       262  0.001471795 0.0001180306   0.01371582 0.0005206948   0.01371582 0.0005206948  2.91425e-06    949.3870   1150.6227  65.8122422  -1.3366891  65.8122422  -1.3366891
       263 0.0006387589 8.018602e-05  0.006676326 0.0003556018  0.006676326 0.0003556018 -3.068081e-06    793.4957   1155.9944  65.8139748  -1.3366294  65.8139748  -1.3366294
       264 0.0006547252 8.018602e-05  0.005822788 0.0003448931  0.005822788 0.0003448931  4.19567e-06   1051.1682   1099.8367  65.8111110  -1.3372533  65.8111110  -1.3372533
       265 0.0006778801 8.018602e-05  0.004460626 0.0003495227  0.004460626 0.0003495227 -1.986744e-06    840.3403    985.3311  65.8134542  -1.3385256  65.8134542  -1.3385256
       266  0.001546593 0.0001224862   0.01025903 0.0004942998   0.01025903 0.0004942998 4.310742e-06    900.5096   1100.4996  65.8127854  -1.3372460  65.8127854  -1.3372460
       267  0.001821987 0.0001309432   0.01034811 0.0005298753   0.01034811 0.0005298753 8.573589e-07    652.4932   1100.8169  65.8155419  -1.3372425  65.8155419  -1.3372425
       268  0.001713887 0.0001224862    0.0132353 0.0005123963    0.0132353 0.0005123963 5.694209e-06    550.5261   1101.4998  65.8166752  -1.3372349  65.8166752  -1.3372349
       269 0.0006382875 8.018602e-05  0.006727448 0.0003556018  0.006727448 0.0003556018 7.091472e-07    400.5047   1101.9960  65.8183426  -1.3372293  65.8183426  -1.3372293
       270  0.004176714 0.0001936676   0.01126452  0.000645651   0.01126452  0.000645651 6.023767e-06    599.6779   1100.3562  65.8161289  -1.3372476  65.8161289  -1.3372476
       271  0.002657457 0.0001535445   0.01177344 0.0005928706   0.01177344 0.0005928706 -4.028916e-06    748.9492   1102.0850  65.8144699  -1.3372284  65.8144699  -1.3372284
       272  0.001037172 9.820741e-05  0.005775461 0.0003955482  0.005775461 0.0003955482 6.264002e-06    507.4395   1103.2384  65.8171541  -1.3372155  65.8171541  -1.3372155
       273  0.002853184 0.0001669205   0.02050123 0.0006804009   0.02050123 0.0006804009 5.084652e-06    945.7333   1096.3567  65.8122828  -1.3372920  65.8122828  -1.3372920
       274 0.0009816751 9.820741e-05  0.009105792 0.0004524178  0.009105792 0.0004524178 -3.104164e-06    798.7767   1092.5322  65.8139161  -1.3373345  65.8139161  -1.3373345
       275 0.0004500533 6.547161e-05  0.004075609 0.0002853841  0.004075609 0.0002853841 -2.825177e-06    800.5036   1000.5188  65.8138969  -1.3383569  65.8138969  -1.3383569
       276  0.001130417 0.0001035197  0.008475186 0.0004367501  0.008475186 0.0004367501 4.820525e-06    968.0175   1004.5032  65.8120351  -1.3383126  65.8120351  -1.3383126
       277  0.003651642 0.0001822652   0.01708663 0.0007021048   0.01708663 0.0007021048 3.266092e-06    898.2173   1050.3457  65.8128109  -1.3378032  65.8128109  -1.3378032
       278  0.001562989 0.0001224862   0.01198893 0.0005092496   0.01198893 0.0005092496 3.637613e-06    200.5002   1049.4977  65.8205654  -1.3378127  65.8205654  -1.3378127
       279  0.001607987 0.0001224862   0.01077051 0.0005050233   0.01077051 0.0005050233 4.405361e-06    556.0720   1056.1035  65.8166136  -1.3377393  65.8166136  -1.3377393
       280  0.002542162 0.0001535445   0.01407294 0.0006167898   0.01407294 0.0006167898 4.608602e-06    649.2956   1052.4961  65.8155775  -1.3377793  65.8155775  -1.3377793
       281  0.001499144 0.0001180306  0.008206541 0.0004721225  0.008206541 0.0004721225 2.327746e-06    269.3859   1052.3845  65.8197998  -1.3377806  65.8197998  -1.3377806
       282 0.0003239142 5.670008e-05  0.003305917  0.000240558  0.003305917  0.000240558 5.799229e-07    101.6709   1000.3312  65.8216638  -1.3383590  65.8216638  -1.3383590
       283  0.004224154 0.0001991241    0.0140768 0.0007312624    0.0140768 0.0007312624 3.451526e-06    200.3449    999.6563  65.8205672  -1.3383665  65.8205672  -1.3383665
       284  0.002351023  0.000142692  0.009907388 0.0005217228  0.009907388 0.0005217228 2.259319e-06   1100.5912   1049.6766  65.8105617  -1.3378107  65.8105617  -1.3378107
       285  0.001547433 0.0001224862  0.006785812 0.0003703633  0.006785812 0.0003703633 3.970648e-07    400.9988   1000.7178  65.8183371  -1.3383547  65.8183371  -1.3383547
       286  0.003128281 0.0001701002   0.01442994 0.0006530772   0.01442994 0.0006530772 -2.280268e-07    716.5770    988.2885  65.8148297  -1.3384928  65.8148297  -1.3384928
       287  0.001222237 0.0001035197  0.008574081 0.0004391969  0.008574081 0.0004391969 -6.365432e-06   1147.5073    994.7895  65.8100403  -1.3384205  65.8100403  -1.3384205
       288  0.004843685 0.0002070394   0.01348301 0.0007216741   0.01348301 0.0007216741 5.384019e-06    603.1649   1052.0526  65.8160902  -1.3377843  65.8160902  -1.3377843
       289  0.001100604 9.820741e-05  0.005009246 0.0003732456  0.005009246 0.0003732456 2.496039e-06    499.6933   1000.8677  65.8172402  -1.3383530  65.8172402  -1.3383530
       290 0.0009277305 9.259083e-05   0.00655973 0.0003873353   0.00655973 0.0003873353 -6.421531e-06   1161.7378    997.1384  65.8098821  -1.3383944  65.8098821  -1.3383944
       291  0.001933736 0.0001309432  0.008525074 0.0005258148  0.008525074 0.0005258148 4.483881e-06    621.1821   1000.2885  65.8158899  -1.3383594  65.8158899  -1.3383594
