#   1 NUMBER                 Running object number                                     
#   2 FLUX_ISO               Isophotal flux                                             [count]
#   3 FLUXERR_ISO            RMS error for isophotal flux                               [count]
#   4 FLUX_AUTO              Flux within a Kron-like elliptical aperture                [count]
#   5 FLUXERR_AUTO           RMS error for AUTO flux                                    [count]
#   6 FLUX_BEST              Best of FLUX_AUTO and FLUX_ISOCOR                          [count]
#   7 FLUXERR_BEST           RMS error for BEST flux                                    [count]
#   8 BACKGROUND             Background at centroid position                            [count]
#   9 X_IMAGE                Object position along x                                    [pixel]
#  10 Y_IMAGE                Object position along y                                    [pixel]
#  11 ALPHA_SKY              Right ascension of barycenter (native)                     [deg]
#  12 DELTA_SKY              Declination of barycenter (native)                         [deg]
#  13 ALPHA_J2000            Right ascension of barycenter (J2000)                      [deg]
#  14 DELTA_J2000            Declination of barycenter (J2000)                          [deg]
         1   0.01311168  0.000351903   0.04239815   0.00112762   0.04239815   0.00112762 -5.595555e-06    401.4028     52.9697  65.8183326  -1.3488852  65.8183326  -1.3488852
         2  0.003690355 0.0001851377   0.01846107 0.0007450164   0.01846107 0.0007450164 -4.969177e-06   1151.3636     48.4513  65.8099974  -1.3489354  65.8099974  -1.3489354
         3  0.001800456 0.0001287833  0.009767239  0.000529945  0.009767239  0.000529945 -5.314899e-06   1145.5280     43.3253  65.8100622  -1.3489924  65.8100622  -1.3489924
         4  0.002943525 0.0001695511   0.01626575 0.0005864003   0.01626575 0.0005864003 1.381587e-06    660.1218     55.0563  65.8154571  -1.3488620  65.8154571  -1.3488620
         5  0.002860426 0.0001628994   0.02055028 0.0006765721   0.02055028 0.0006765721  2.91999e-06    751.0153     49.5000  65.8144469  -1.3489237  65.8144469  -1.3489237
         6  0.002462757 0.0001487062   0.01619619 0.0006104202   0.01619619 0.0006104202 -7.042102e-06    599.4830     51.4817  65.8161311  -1.3489017  65.8161311  -1.3489017
         7  0.003417759 0.0001759515   0.01949384 0.0007014456   0.01949384 0.0007014456 -1.092646e-06    852.5627     51.2399  65.8133183  -1.3489044  65.8133183  -1.3489044
         8  0.002312864 0.0001523785   0.01736726 0.0006532924   0.01736726 0.0006532924 3.292353e-06    733.4175     51.1786  65.8146425  -1.3489051  65.8146425  -1.3489051
         9  0.001799618 0.0001287833   0.01278037 0.0005341015   0.01278037 0.0005341015 -6.653034e-06    451.4759     51.3173  65.8177761  -1.3489036  65.8177761  -1.3489036
        10  0.002203587 0.0001410751   0.01200318 0.0005564075   0.01200318 0.0005564075 -2.764112e-06    202.2548     50.3896  65.8205460  -1.3489139  65.8205460  -1.3489139
        11 0.0004268261 6.650342e-05  0.005291896 0.0002974123  0.005291896 0.0002974123 6.047928e-07    818.4939     45.4971  65.8136970  -1.3489682  65.8136970  -1.3489682
        12  0.001160846 0.0001051511  0.007169516 0.0004386202  0.007169516 0.0004386202 -1.744093e-06    897.7954     50.0008  65.8128156  -1.3489182  65.8128156  -1.3489182
        13  0.001330177 0.0001151873  0.006692338 0.0003791278  0.006692338 0.0003791278 -3.530425e-07   1053.0061     51.2920  65.8110905  -1.3489038  65.8110905  -1.3489038
        14  0.002082274 0.0001410751   0.01441144 0.0006076971   0.01441144 0.0006076971 -5.686934e-06    608.1185     57.4520  65.8160351  -1.3488354  65.8160351  -1.3488354
        15  0.003334153 0.0001790659   0.01712793 0.0007085033   0.01712793 0.0007085033 3.353028e-06    706.0836     55.3421  65.8149463  -1.3488588  65.8149463  -1.3488588
        16 0.0005625043 7.435308e-05  0.004304495  0.000313696  0.004304495  0.000313696 -7.372119e-06    479.1975     51.6132  65.8174680  -1.3489003  65.8174680  -1.3489003
        17  0.000443739 6.650342e-05  0.003849567 0.0002898817  0.003849567 0.0002898817 -3.064075e-06    248.9997     51.5013  65.8200264  -1.3489015  65.8200264  -1.3489015
        18  0.001412965 0.0001151873   0.01064383  0.000479563   0.01064383  0.000479563 -8.77485e-06    555.4941     56.4823  65.8166200  -1.3488462  65.8166200  -1.3488462
        19   0.01788936 0.0003962398   0.03571286 0.0008784998   0.03571286 0.0008784998 -7.711353e-06    551.4993    102.0141  65.8166644  -1.3483403  65.8166644  -1.3483403
        20  0.001142673 0.0001051511  0.007319535 0.0004373579  0.007319535 0.0004373579 -1.729319e-06   1145.3140     91.7182  65.8100646  -1.3484547  65.8100646  -1.3484547
        21   0.00117775 0.0001051511  0.009517201 0.0004607492  0.009517201 0.0004607492 -1.607718e-06    313.2879     97.2135  65.8193119  -1.3483936  65.8193119  -1.3483936
        22 0.0008860273 9.405003e-05  0.007295785 0.0003976326  0.007295785 0.0003976326 1.087276e-06    612.1266     98.1253  65.8159906  -1.3483835  65.8159906  -1.3483835
        23  0.001286451 0.0001102834  0.009394637 0.0004559245  0.009394637 0.0004559245 4.978646e-06    749.7004    100.9263  65.8144615  -1.3483523  65.8144615  -1.3483523
        24  0.000677998 8.144972e-05  0.005169053 0.0003341755  0.005169053 0.0003341755 3.580704e-06    653.5082    100.9913  65.8155306  -1.3483516  65.8155306  -1.3483516
        25   0.00107925 9.975513e-05  0.007891124 0.0004099546  0.007891124 0.0004099546 -5.507488e-06    400.7403    101.5522  65.8183400  -1.3483454  65.8183400  -1.3483454
        26  0.000668207 8.144972e-05  0.006217227 0.0003487469  0.006217227 0.0003487469 -6.422806e-07    308.1676    107.1709  65.8193688  -1.3482830  65.8193688  -1.3482830
        27 0.0005490654 7.435308e-05  0.005172907 0.0003341755  0.005172907 0.0003341755 -1.433451e-06    328.9891    113.9977  65.8191374  -1.3482071  65.8191374  -1.3482071
        28  0.003116037 0.0001759515   0.01451332 0.0005162053   0.01451332 0.0005162053 -5.570163e-06    438.0017    166.9993  65.8179258  -1.3476182  65.8179258  -1.3476182
        29 0.0004476172 6.650342e-05  0.004508363  0.000301107  0.004508363  0.000301107 -6.177595e-06    425.9983    142.7474  65.8180592  -1.3478877  65.8180592  -1.3478877
        30  0.001210552 0.0001051511   0.01015346 0.0004448775   0.01015346 0.0004448775 8.246249e-06    700.0055    151.1855  65.8150139  -1.3477939  65.8150139  -1.3477939
        31  0.001596454 0.0001198907  0.009130096 0.0004725956  0.009130096 0.0004725956 -4.778297e-06    550.6108    151.6273  65.8166743  -1.3477890  65.8166743  -1.3477890
        32  0.001054524 9.975513e-05  0.006386582 0.0004126428  0.006386582 0.0004126428 -6.205494e-06    452.6706    149.9948  65.8177628  -1.3478071  65.8177628  -1.3478071
        33  0.001689329 0.0001287833   0.01529705  0.000555413   0.01529705  0.000555413 -6.137088e-07   1101.2605    151.0712  65.8105542  -1.3477952  65.8105542  -1.3477952
        34   0.00132332 0.0001151873  0.008164593 0.0004258296  0.008164593 0.0004258296 -5.942084e-06    502.3218    152.8866  65.8172110  -1.3477750  65.8172110  -1.3477750
        35 0.0007704455 8.797575e-05  0.007146445  0.000382033  0.007146445  0.000382033 2.880947e-06    301.3068    151.2785  65.8194451  -1.3477929  65.8194451  -1.3477929
        36  0.002181618 0.0001449408   0.01148912 0.0005701481   0.01148912 0.0005701481 -5.42978e-06    459.4269    168.3722  65.8176877  -1.3476029  65.8176877  -1.3476029
        37 0.0004372014 6.650342e-05  0.006174587 0.0003172011  0.006174587 0.0003172011 3.409114e-06    134.2449    162.0022  65.8213018  -1.3476737  65.8213018  -1.3476737
        38 0.0004542576 6.650342e-05  0.004174176 0.0002898817  0.004174176 0.0002898817 -1.236413e-06     70.5039    162.4885  65.8220103  -1.3476683  65.8220103  -1.3476683
        39  0.001111134 0.0001051511  0.009690219 0.0004571354  0.009690219 0.0004571354 8.900911e-07    600.7081    168.1995  65.8161175  -1.3476049  65.8161175  -1.3476049
        40  0.005101316 0.0002205669     0.026442 0.0008677358     0.026442 0.0008677358 9.717691e-07    603.0875    202.6929  65.8160910  -1.3472216  65.8160910  -1.3472216
        41  0.001224287 0.0001102834   0.00705946 0.0003732495   0.00705946 0.0003732495 3.583958e-07    344.4312    212.2839  65.8189658  -1.3471150  65.8189658  -1.3471150
        42  0.001550927 0.0001198907   0.01464873 0.0005162053   0.01464873 0.0005162053 -6.654226e-06   1215.6573    177.0163  65.8092828  -1.3475069  65.8092828  -1.3475069
        43  0.001459831 0.0001198907   0.01049687 0.0004373579   0.01049687 0.0004373579 -2.018851e-06   1159.5061    179.0151  65.8099069  -1.3474847  65.8099069  -1.3474847
        44  0.001752624 0.0001287833    0.0164868 0.0005574002    0.0164868 0.0005574002 -2.114565e-06   1154.0062    191.9182  65.8099680  -1.3473413  65.8099680  -1.3473413
        45  0.005858949 0.0002374647   0.03348788  0.001044125   0.03348788  0.001044125 7.223437e-06    702.6889    196.5268  65.8149840  -1.3472901  65.8149840  -1.3472901
        46  0.005911957 0.0002351251   0.01766963 0.0007116176   0.01766963 0.0007116176 4.731136e-06    655.1732    200.4891  65.8155121  -1.3472461  65.8155121  -1.3472461
        47 0.0008082508 8.797575e-05  0.006616485 0.0003762001  0.006616485 0.0003762001 4.790537e-06    250.0144    200.2997  65.8200151  -1.3472482  65.8200151  -1.3472482
        48 0.0007232191 8.144972e-05   0.00434702 0.0003223873   0.00434702 0.0003223873 3.414463e-06    300.9857    201.5049  65.8194486  -1.3472348  65.8194486  -1.3472348
        49 0.0004535778 6.650342e-05  0.003596913  0.000301107  0.003596913  0.000301107 -1.25604e-06    488.0052    205.2502  65.8173701  -1.3471932  65.8173701  -1.3471932
        50   0.00400094 0.0001967198   0.01675512 0.0006990772   0.01675512 0.0006990772 3.407352e-06    200.3173   1000.8594  65.8205675  -1.3383531  65.8205675  -1.3383531
        51  0.001724798 0.0001330068   0.01067998 0.0004534928   0.01067998 0.0004534928 -1.237593e-06   1171.5519   1244.6637  65.8097730  -1.3356441  65.8097730  -1.3356441
        52  0.001388452 0.0001151873   0.01274124 0.0005053822   0.01274124 0.0005053822 -7.489386e-06    570.8409   1237.4861  65.8164494  -1.3357239  65.8164494  -1.3357239
        53  0.001154201 0.0001051511  0.008962282 0.0004398788  0.008962282 0.0004398788 -6.122137e-06    586.8031   1229.9801  65.8162720  -1.3358073  65.8162720  -1.3358073
        54   0.00083217 8.797575e-05  0.007160887 0.0003732495  0.007160887 0.0003732495 -4.226105e-06    443.2668   1203.4310  65.8178673  -1.3361023  65.8178673  -1.3361023
        55 0.0003231487 5.759365e-05  0.003961638 0.0002443492  0.003961638 0.0002443492 8.998709e-08    851.3326   1201.3304  65.8133320  -1.3361256  65.8133320  -1.3361256
        56  0.000349434 5.759365e-05  0.002886517 0.0002303746  0.002886517 0.0002303746 -2.758802e-06    800.3207   1201.6586  65.8138990  -1.3361220  65.8138990  -1.3361220
        57  0.001511712 0.0001198907  0.007759748 0.0004714243  0.007759748 0.0004714243 -1.540993e-06    652.6050   1200.3877  65.8155407  -1.3361361  65.8155407  -1.3361361
        58 0.0007878037 8.797575e-05  0.006815624 0.0003849163  0.006815624 0.0003849163 -9.548094e-06    351.2920   1200.9867  65.8188895  -1.3361295  65.8188895  -1.3361295
        59  0.002102864 0.0001449408   0.01612528 0.0005711169   0.01612528 0.0005711169 -6.833242e-07     98.9245   1199.0842  65.8216944  -1.3361506  65.8216944  -1.3361506
        60  0.005539032 0.0002303746   0.01500024 0.0007108403   0.01500024 0.0007108403 4.126735e-06    639.8049   1082.2478  65.8156829  -1.3374488  65.8156829  -1.3374488
        61  0.000429001 6.650342e-05  0.005198961 0.0003119287  0.005198961 0.0003119287 -6.023118e-06   1128.9974    983.2474  65.8102460  -1.3385488  65.8102460  -1.3385488
        62  0.001597281 0.0001244165   0.00960427 0.0004998828   0.00960427 0.0004998828 4.425131e-07    678.2688    956.4946  65.8152555  -1.3388460  65.8152555  -1.3388460
        63  0.001223649 0.0001102834  0.008794026 0.0004607492  0.008794026 0.0004607492  1.88032e-06    549.2325    956.0177  65.8166896  -1.3388513  65.8166896  -1.3388513
        64  0.001033714 9.975513e-05  0.006527788 0.0004139804  0.006527788 0.0004139804 1.767627e-06    500.9971    950.1204  65.8172257  -1.3389169  65.8172257  -1.3389169
        65  0.000577283 7.435308e-05  0.003955978 0.0003065656  0.003955978 0.0003065656 1.787404e-06    151.2027    950.6123  65.8211133  -1.3389114  65.8211133  -1.3389114
        66  0.001185787 0.0001051511  0.008372109 0.0004423852  0.008372109 0.0004423852 -2.994369e-06   1146.5023    942.9878  65.8100514  -1.3389961  65.8100514  -1.3389961
        67  0.001563818 0.0001244165   0.01156786 0.0005268061   0.01156786 0.0005268061 1.167661e-06    491.0673    934.3481  65.8173360  -1.3390921  65.8173360  -1.3390921
        68  0.001775597 0.0001287833   0.01025315 0.0005268061   0.01025315 0.0005268061 2.258964e-06    843.0941    928.5988  65.8134236  -1.3391560  65.8134236  -1.3391560
        69   0.01053192 0.0003172011   0.05107762  0.001348643   0.05107762  0.001348643 -1.072692e-06    400.2817    915.5711  65.8183450  -1.3393007  65.8183450  -1.3393007
        70  0.001915673 0.0001371003   0.01102708 0.0004852927   0.01102708 0.0004852927  3.26712e-06    822.8182    902.1871  65.8136489  -1.3394494  65.8136489  -1.3394494
        71  0.001334341 0.0001151873  0.009729706 0.0005075653  0.009729706 0.0005075653 -3.683336e-06    350.0924    901.6703  65.8189029  -1.3394552  65.8189029  -1.3394552
        72  0.001350144 0.0001151873   0.01274137 0.0005129824   0.01274137 0.0005129824  1.58513e-06    241.0113    902.4904  65.8201152  -1.3394461  65.8201152  -1.3394461
        73  0.001259737 0.0001102834   0.01214373 0.0004714243   0.01214373 0.0004714243 -1.280852e-06   1100.3582    901.9145  65.8105643  -1.3394525  65.8105643  -1.3394525
        74  0.002290746 0.0001449408   0.02250105 0.0006439165   0.02250105 0.0006439165 -2.212018e-06    701.9992    901.2822  65.8149917  -1.3394595  65.8149917  -1.3394595
        75  0.001054417 9.975513e-05  0.006104222 0.0003990205  0.006104222 0.0003990205 -4.65627e-06    549.6791    900.9982  65.8166846  -1.3394627  65.8166846  -1.3394627
        76 0.0009264213 9.405003e-05  0.008251516 0.0004153137  0.008251516 0.0004153137 -2.279046e-06     99.5164    900.5110  65.8216878  -1.3394681  65.8216878  -1.3394681
        77 0.0004217814 6.650342e-05  0.005476031 0.0002974123  0.005476031 0.0002974123 -3.349768e-06    454.5007    898.5059  65.8177424  -1.3394904  65.8177424  -1.3394904
        78 0.0004620328 6.650342e-05  0.004442223 0.0002898817  0.004442223 0.0002898817 -2.717853e-06    720.4979    887.5039  65.8147861  -1.3396126  65.8147861  -1.3396126
        79  0.001522382 0.0001198907  0.009609343 0.0004998828  0.009609343 0.0004998828 -8.935408e-06    508.7722    868.7825  65.8171393  -1.3398206  65.8171393  -1.3398206
        80  0.005004385 0.0002129148   0.02822953 0.0008021867   0.02822953 0.0008021867 -2.667118e-06    749.2760    853.1875  65.8144663  -1.3399939  65.8144663  -1.3399939
        81  0.002973738 0.0001594696   0.01481732 0.0006167273   0.01481732 0.0006167273 -8.739357e-06    490.6067    853.6384  65.8173412  -1.3399889  65.8173412  -1.3399889
        82  0.001371255 0.0001102834  0.008106074 0.0004348225  0.008106074 0.0004348225 1.415094e-07     50.1130    850.7916  65.8222369  -1.3400205  65.8222369  -1.3400205
        83 0.0007144539 8.144972e-05  0.003991805 0.0003240975  0.003991805 0.0003240975 -8.633613e-06    403.0008    849.1779  65.8183148  -1.3400384  65.8183148  -1.3400384
        84  0.002181444 0.0001449408   0.01561249 0.0006003752   0.01561249 0.0006003752 -5.930738e-06    932.1489    846.7051  65.8124338  -1.3400659  65.8124338  -1.3400659
        85  0.000438315 6.650342e-05  0.004865207 0.0002974123  0.004865207 0.0002974123 -4.413004e-06   1015.5026    846.4969  65.8115074  -1.3400682  65.8115074  -1.3400682
        86 0.0007672382 8.797575e-05  0.008836556 0.0003976326  0.008836556 0.0003976326 -6.553661e-06    691.5859    854.8594  65.8151074  -1.3399753  65.8151074  -1.3399753
        87  0.001241781 0.0001102834   0.00751977 0.0003805832   0.00751977 0.0003805832 -9.957228e-06    352.7209    845.4233  65.8188736  -1.3400802  65.8188736  -1.3400802
        88  0.001794164 0.0001287833   0.01497785 0.0005433374   0.01497785 0.0005433374 3.550577e-06   1127.3330    840.0790  65.8102645  -1.3401395  65.8102645  -1.3401395
        89  0.001269578 0.0001102834  0.006537179 0.0003687793  0.006537179 0.0003687793 -2.014328e-06   1044.2662    838.4290  65.8111877  -1.3401579  65.8111877  -1.3401579
        90  0.002133214 0.0001449408   0.01534302 0.0005633197   0.01534302 0.0005633197 2.807269e-06   1070.9902    801.9919  65.8108907  -1.3405627  65.8108907  -1.3405627
        91  0.002117523 0.0001330068   0.01133281 0.0005119035   0.01133281 0.0005119035 -2.990535e-06    199.6830    801.0559  65.8205745  -1.3405731  65.8205745  -1.3405731
        92 0.0004267454 6.650342e-05  0.005211911 0.0002974123  0.005211911 0.0002974123 -9.20475e-06    648.5003    802.5016  65.8155863  -1.3405571  65.8155863  -1.3405571
        93  0.002530963 0.0001523785   0.00570009 0.0004498208   0.00570009 0.0004498208 -1.08517e-05    615.8939    793.9993  65.8159487  -1.3406515  65.8159487  -1.3406515
        94  0.002781867 0.0001662585   0.01169206 0.0005140589   0.01169206 0.0005140589 -1.400632e-06    192.0246    782.1448  65.8206596  -1.3407832  65.8206596  -1.3407832
        95  0.002880181 0.0001662585   0.02020676 0.0006031314   0.02020676 0.0006031314 -4.955395e-06    558.0281    770.6337  65.8165918  -1.3409112  65.8165918  -1.3409112
        96  0.001313628 0.0001102834   0.00573905 0.0004297068   0.00573905 0.0004297068 1.562676e-07    185.3462    762.4758  65.8207339  -1.3410018  65.8207339  -1.3410018
        97  0.001236772 0.0001102834    0.0126062 0.0004784088    0.0126062 0.0004784088 -5.059615e-06    737.6368    759.8909  65.8145956  -1.3410305  65.8145956  -1.3410305
        98  0.001830926 0.0001330068   0.01115627 0.0005672317   0.01115627 0.0005672317 -3.619382e-06    800.2744    752.7510  65.8138995  -1.3411098  65.8138995  -1.3411098
        99  0.004285843 0.0001938891   0.02054854 0.0007524003   0.02054854 0.0007524003 -7.849435e-06    651.3149    750.1387  65.8155550  -1.3411389  65.8155550  -1.3411389
       100  0.001844805 0.0001287833  0.006180727 0.0004360921  0.006180727 0.0004360921  -8.3946e-06    619.3093    752.0844  65.8159107  -1.3411173  65.8159107  -1.3411173
       101  0.001030957 9.975513e-05  0.008739206 0.0004245294  0.008739206 0.0004245294 3.171378e-06    101.3387    750.8795  65.8216675  -1.3411306  65.8216675  -1.3411306
       102  0.002005782 0.0001410751   0.01369946  0.000481863   0.01369946  0.000481863 -2.537353e-06    884.3060    746.4865  65.8129655  -1.3411795  65.8129655  -1.3411795
       103 0.0006117595 7.435308e-05  0.004124294 0.0003065656  0.004124294 0.0003065656 -7.894705e-06    627.4094    743.7798  65.8158207  -1.3412095  65.8158207  -1.3412095
       104  0.001819736 0.0001330068   0.01180139 0.0005086533   0.01180139 0.0005086533 2.994263e-06    546.7434    742.8286  65.8167172  -1.3412201  65.8167172  -1.3412201
       105  0.002816498 0.0001628994   0.01402402 0.0007360579   0.01402402 0.0007360579 -7.528252e-06    655.9983    736.8675  65.8155030  -1.3412863  65.8155030  -1.3412863
       106  0.004348616 0.0001995103   0.02046338 0.0006830778   0.02046338 0.0006830778 3.515896e-06    445.6688    743.2765  65.8178406  -1.3412151  65.8178406  -1.3412151
       107 0.0008173395 8.797575e-05  0.004785077  0.000347158  0.004785077  0.000347158 -3.423564e-06    812.0026    732.0038  65.8137691  -1.3413404  65.8137691  -1.3413404
       108  0.001061241 9.975513e-05  0.008731479 0.0004245294  0.008731479 0.0004245294 5.420974e-06    493.5551    713.1144  65.8173084  -1.3415503  65.8173084  -1.3415503
       109 0.0007022226 8.144972e-05  0.003906197  0.000313696  0.003906197  0.000313696 2.793438e-06    636.9885    706.5086  65.8157142  -1.3416237  65.8157142  -1.3416237
       110  0.002066433 0.0001410751   0.01331589 0.0005910953   0.01331589 0.0005910953 5.822766e-06    544.2920    702.5020  65.8167445  -1.3416682  65.8167445  -1.3416682
       111  0.002037733 0.0001371003   0.01207462 0.0005643002   0.01207462 0.0005643002 -1.161322e-07    899.1393    700.6132  65.8128007  -1.3416892  65.8128007  -1.3416892
       112 0.0008243906 8.797575e-05  0.006298772 0.0003732495  0.006298772 0.0003732495 -1.115296e-06     51.0050    700.7068  65.8222270  -1.3416881  65.8222270  -1.3416881
       113  0.000720812 8.144972e-05  0.004293603 0.0003257989  0.004293603 0.0003257989 5.183138e-06    451.4933    700.4991  65.8177759  -1.3416904  65.8177759  -1.3416904
       114   0.00627828 0.0002397815   0.01628651 0.0007338012   0.01628651 0.0007338012 8.062796e-06    672.7114    691.7004  65.8153172  -1.3417882  65.8153172  -1.3417882
       115 0.0004413193 6.650342e-05   0.00471601 0.0002936711   0.00471601 0.0002936711 -7.112096e-08    724.5013    693.4971  65.8147416  -1.3417682  65.8147416  -1.3417682
       116  0.008094469 0.0002532375   0.01508193 0.0006846946   0.01508193 0.0006846946 1.451935e-05    636.7415    663.6057  65.8157170  -1.3421004  65.8157170  -1.3421004
       117 0.0004261385 6.650342e-05  0.005098324 0.0002974123  0.005098324 0.0002974123  3.51848e-06    275.4967    660.5033  65.8197319  -1.3421348  65.8197319  -1.3421348
       118 0.0006670771 8.144972e-05  0.005265942 0.0003657688  0.005265942 0.0003657688 3.669032e-06    351.4930    659.6795  65.8188873  -1.3421440  65.8188873  -1.3421440
       119  0.003193071 0.0001759515   0.01612321 0.0006741164   0.01612321 0.0006741164 -5.200928e-06     28.8282    656.4266  65.8224734  -1.3421801  65.8224734  -1.3421801
       120 0.0005638091 7.435308e-05  0.004511291  0.000313696  0.004511291  0.000313696 4.364204e-06   1151.1884    651.6071  65.8099993  -1.3422337  65.8099993  -1.3422337
       121  0.002084595 0.0001371003   0.01050777 0.0005402763   0.01050777 0.0005402763 -1.47963e-06    851.6381    650.2987  65.8133286  -1.3422482  65.8133286  -1.3422482
       122 0.0009619324 9.405003e-05  0.007541728 0.0003948422  0.007541728 0.0003948422 5.274218e-06    499.8799    650.8611  65.8172381  -1.3422420  65.8172381  -1.3422420
       123  0.007123571 0.0002374647   0.02144561 0.0007784026   0.02144561 0.0007784026 1.455835e-05    649.0962    652.9191  65.8155797  -1.3422191  65.8155797  -1.3422191
       124  0.002735911 0.0001523785  0.008650092 0.0005225916  0.008650092 0.0005225916 1.447061e-05    621.6098    644.5508  65.8158852  -1.3423121  65.8158852  -1.3423121
       125  0.004566359 0.0001938891   0.01298952 0.0006335301   0.01037998 0.0008097577 1.370144e-05    603.3922    643.9496  65.8160876  -1.3423188  65.8160876  -1.3423188
       126  0.006316158 0.0002279622   0.03640062 0.0009481111   0.03640062 0.0009481111 1.285338e-05    596.3047    640.7496  65.8161664  -1.3423543  65.8161664  -1.3423543
       127 0.0006981033 8.144972e-05  0.006693977  0.000347158  0.006693977  0.000347158 4.705786e-06    492.5051    645.0052  65.8173201  -1.3423070  65.8173201  -1.3423070
       128 0.0006930507 8.144972e-05  0.005427679 0.0003291751  0.005427679 0.0003291751  1.46331e-05    672.0152    643.5124  65.8153250  -1.3423236  65.8153250  -1.3423236
       129 0.0004279485 6.650342e-05  0.004855037 0.0002974123  0.004855037 0.0002974123 2.815521e-06   1016.5018    640.4954  65.8114963  -1.3423571  65.8114963  -1.3423571
       130  0.001240779 0.0001102834  0.007579654 0.0004607492  0.007579654 0.0004607492  5.40962e-06    517.8083    637.1635  65.8170388  -1.3423942  65.8170388  -1.3423942
       131   0.06614718 0.0004607492   0.03430876 0.0007330475   0.07514691 0.0009901569 1.448036e-05    625.1016    626.3604  65.8158464  -1.3425142  65.8158464  -1.3425142
       132   0.03878922 0.0004920803   0.03962513 0.0008226018    0.0595593  0.001641038 1.432653e-05    627.1508    607.7030  65.8158236  -1.3427215  65.8158236  -1.3427215
       133  0.004929048 0.0002129148   0.01095507 0.0005053822   0.01095507 0.0005053822  1.45681e-05    652.3215    628.5598  65.8155438  -1.3424898  65.8155438  -1.3424898
       134   0.01054191 0.0003047569    0.0226943 0.0009172892   0.02853006  0.001349845 1.309568e-05    598.0912    625.2933  65.8161466  -1.3425260  65.8161466  -1.3425260
       135   0.01763262 0.0003990205   0.07613618  0.001593656   0.07613618  0.001593656 1.200531e-05    588.7650    624.1983  65.8162502  -1.3425382  65.8162502  -1.3425382
       136   0.00618287 0.0002351251   0.03790357 0.0009504406   0.01751823  0.001055059  1.46071e-05    663.7904    624.9459  65.8154164  -1.3425299  65.8154164  -1.3425299
       137  0.005160506 0.0002129148   0.04108571 0.0009608535   0.01384549 0.0009406405  1.46006e-05    662.2836    618.1847  65.8154331  -1.3426050  65.8154331  -1.3426050
       138  0.002098336 0.0001410751   0.01530775 0.0005929629   0.01530775 0.0005929629 5.127424e-07    983.2716    615.6270  65.8118656  -1.3426334  65.8118656  -1.3426334
       139  0.001954063 0.0001371003  0.009187664 0.0005225916  0.009187664 0.0005225916 4.349286e-06    733.4980    613.1403  65.8146416  -1.3426611  65.8146416  -1.3426611
       140 0.0003368916 5.759365e-05  0.003795511 0.0002443492  0.003795511 0.0002443492 -6.523762e-06     62.3429    614.3210  65.8221010  -1.3426480  65.8221010  -1.3426480
       141  0.001583516 0.0001244165   0.01194861 0.0005215327   0.01194861 0.0005215327 -7.852447e-06     44.2127    613.2880  65.8223025  -1.3426594  65.8223025  -1.3426594
       142 0.0009560395 9.405003e-05  0.005842412  0.000382033  0.005842412  0.000382033 1.299543e-06    476.1121    608.8575  65.8175023  -1.3427087  65.8175023  -1.3427087
       143 0.0006423855 8.144972e-05  0.006496908 0.0003596722  0.006496908 0.0003596722 -2.726569e-06    798.1675    604.8336  65.8139229  -1.3427534  65.8139229  -1.3427534
       144  0.008600927 0.0002762094   0.01905746 0.0008306274   0.01905746 0.0008306274 8.062101e-06    708.1549    598.3981  65.8149233  -1.3428249  65.8149233  -1.3428249
       145  0.006116543 0.0002351251   0.01275108 0.0006650342   0.01275108 0.0006650342 1.302452e-05    651.6211    599.3733  65.8155516  -1.3428140  65.8155516  -1.3428140
       146  0.007012099  0.000232762   0.02400537  0.000809049   0.02400537  0.000809049 1.200822e-05    601.7125    599.0676  65.8161063  -1.3428174  65.8161063  -1.3428174
       147 0.0009247902 9.405003e-05  0.008088896 0.0004206045  0.008088896 0.0004206045 -1.797244e-06    383.2408    600.6201  65.8185344  -1.3428002  65.8185344  -1.3428002
       148  0.009339246  0.000286042   0.02875067 0.0008928563   0.02875067 0.0008928563 1.168092e-05    615.7534    591.5516  65.8159503  -1.3429010  65.8159503  -1.3429010
       149    0.0020569 0.0001449408   0.01708528 0.0006464871   0.01708528 0.0006464871 3.667351e-06   1146.0194    589.1252  65.8100568  -1.3429279  65.8100568  -1.3429279
       150 0.0009366741 9.405003e-05  0.006590452 0.0003920319  0.006590452 0.0003920319 3.667351e-06   1132.8585    585.1315  65.8102031  -1.3429723  65.8102031  -1.3429723
       151  0.001040594 9.975513e-05  0.006086639 0.0004058888  0.006086639 0.0004058888 -1.735207e-06    865.6702    574.8962  65.8131726  -1.3430860  65.8131726  -1.3430860
       152   0.00131482 0.0001151873   0.01170025 0.0005172752   0.01170025 0.0005172752 5.308442e-06    581.9125    565.9941  65.8163264  -1.3431849  65.8163264  -1.3431849
       153  0.003739714 0.0001881001   0.01811818  0.000704591   0.01811818  0.000704591 -3.716706e-06    384.9237    558.5762  65.8185157  -1.3432673  65.8185157  -1.3432673
       154  0.001176546 0.0001051511  0.009866556 0.0004498208  0.009866556 0.0004498208 3.568633e-06    255.5111    559.7770  65.8199541  -1.3432540  65.8199541  -1.3432540
       155 0.0005677585 7.435308e-05   0.00557275 0.0003240975   0.00557275 0.0003240975 5.505912e-06    228.2059    560.3903  65.8202575  -1.3432472  65.8202575  -1.3432472
       156  0.002017887 0.0001371003   0.01358246 0.0005892218   0.01358246 0.0005892218 3.540393e-06    251.5034    551.9980  65.8199986  -1.3433404  65.8199986  -1.3433404
       157 0.0007085903 8.144972e-05  0.004643436 0.0003189392  0.004643436 0.0003189392 -1.977643e-06    488.9863    553.5007  65.8173592  -1.3433237  65.8173592  -1.3433237
       158   0.00252161 0.0001487062   0.02286912 0.0006532924   0.02286912 0.0006532924 2.512915e-06    752.7386    551.3610  65.8144278  -1.3433475  65.8144278  -1.3433475
       159  0.001850357 0.0001330068  0.009720714 0.0005247031  0.009720714 0.0005247031 4.802253e-06    614.1159    549.5018  65.8159685  -1.3433682  65.8159685  -1.3433682
       160   0.00364738 0.0001851377   0.01590384  0.000665865   0.01590384  0.000665865 -1.745377e-06    863.1111    545.0943  65.8132011  -1.3434171  65.8132011  -1.3434171
       161 0.0003284126 5.759365e-05  0.003896757 0.0002443492  0.003896757 0.0002443492 4.178213e-06    695.6728    540.6640  65.8150620  -1.3434664  65.8150620  -1.3434664
       162 0.0005743646 7.435308e-05  0.004736408 0.0003154534  0.004736408 0.0003154534 1.310471e-06    754.2054    531.5992  65.8144115  -1.3435671  65.8144115  -1.3435671
       163  0.005663316 0.0002154957   0.01052739 0.0003906191   0.01052739 0.0003906191 -5.258651e-08    593.5994    514.3674  65.8161965  -1.3437586  65.8161965  -1.3437586
       164 0.0009135684 9.405003e-05   0.00769367 0.0004153137   0.00769367 0.0004153137 -7.523008e-07    702.5026    502.4719  65.8149861  -1.3438907  65.8149861  -1.3438907
       165   0.00213869 0.0001371003   0.01107995 0.0005320273   0.01107995 0.0005320273 2.815499e-06   1150.6251    501.7168  65.8100056  -1.3438991  65.8100056  -1.3438991
       166  0.001092908 9.975513e-05  0.005720872 0.0003920319  0.005720872 0.0003920319 -1.110374e-06    620.8777    501.3240  65.8158933  -1.3439035  65.8158933  -1.3439035
       167  0.001637615 0.0001244165  0.008746214 0.0005020898  0.008746214 0.0005020898 -1.773081e-06   1050.5029    500.4903  65.8111184  -1.3439127  65.8111184  -1.3439127
       168 0.0006853064 8.144972e-05  0.005222899 0.0003391022  0.005222899 0.0003391022 -3.473369e-06    954.0115    501.4867  65.8121908  -1.3439017  65.8121908  -1.3439017
       169  0.001107517 9.975513e-05  0.004512225 0.0003672771  0.004512225 0.0003672771 -1.294412e-06    600.3350    501.1350  65.8161216  -1.3439056  65.8161216  -1.3439056
       170  0.003617868 0.0001881001   0.01663418  0.000555413   0.01663418  0.000555413 -2.23933e-06    544.3189    496.6116  65.8167442  -1.3439558  65.8167442  -1.3439558
       171 0.0004442306 6.650342e-05  0.004532422 0.0002917825  0.004532422 0.0002917825 -2.009646e-06    746.5079    492.5033  65.8144970  -1.3440015  65.8144970  -1.3440015
       172 0.0008043713 8.797575e-05  0.008914777 0.0003702753  0.008914777 0.0003702753 -3.263884e-06    693.9848    481.9985  65.8150808  -1.3441182  65.8150808  -1.3441182
       173  0.001444435 0.0001151873  0.006358814 0.0004498208  0.006358814 0.0004498208 -4.009486e-06    443.4695    479.7551  65.8178651  -1.3441431  65.8178651  -1.3441431
       174  0.001099025 0.0001051511   0.01171169 0.0004784088   0.01171169 0.0004784088 -3.435336e-06    702.1110    478.0987  65.8149905  -1.3441615  65.8149905  -1.3441615
       175 0.0007135873 8.144972e-05   0.00490567 0.0003291751   0.00490567 0.0003291751 -2.010237e-06   1054.8367    477.1763  65.8110702  -1.3441718  65.8110702  -1.3441718
       176  0.004510631 0.0002049773   0.03579742  0.000948694   0.03579742  0.000948694 -1.762146e-06   1051.9648    459.9809  65.8111021  -1.3443628  65.8111021  -1.3443628
       177 0.0003487645 5.759365e-05  0.002538829 0.0002303746  0.002538829 0.0002303746 -4.563643e-06    628.6564    458.3211  65.8158069  -1.3443813  65.8158069  -1.3443813
       178  0.001062415 9.975513e-05  0.007380172 0.0004139804  0.007380172 0.0004139804 -5.887841e-06   1208.3204    455.1413  65.8093644  -1.3444166  65.8093644  -1.3444166
       179  0.003050883 0.0001662585   0.01185146 0.0006040473   0.01185146 0.0006040473 6.916712e-06    181.1292    452.6347  65.8207807  -1.3444445  65.8207807  -1.3444445
       180  0.002194048 0.0001410751   0.01668546 0.0006003752   0.01668546 0.0006003752 -1.653725e-06   1051.1095    451.8662  65.8111116  -1.3444530  65.8111116  -1.3444530
       181  0.001384089 0.0001151873  0.007641077 0.0004631427  0.007641077 0.0004631427 -6.599897e-06    351.5516    451.7467  65.8188866  -1.3444543  65.8188866  -1.3444543
       182 0.0004474385 6.650342e-05  0.003619632 0.0002898817  0.003619632 0.0002898817 -4.845813e-06    648.4946    451.5000  65.8155864  -1.3444571  65.8155864  -1.3444571
       183  0.000920819 9.405003e-05   0.00762491 0.0004153137   0.00762491 0.0004153137 -3.108436e-06    802.4990    450.5008  65.8138747  -1.3444682  65.8138747  -1.3444682
       184  0.001335915 0.0001151873  0.008465155 0.0004784088  0.008465155 0.0004784088 -4.780764e-06    604.7605    449.2537  65.8160724  -1.3444820  65.8160724  -1.3444820
       185 0.0006599903 8.144972e-05  0.005363273 0.0003455619  0.005363273 0.0003455619 -4.23959e-06    704.4968    447.0131  65.8149639  -1.3445069  65.8149639  -1.3445069
       186  0.003183593 0.0001662585   0.01956114 0.0006943161   0.01956114 0.0006943161 -3.234102e-06    890.9357    436.7604  65.8128918  -1.3446209  65.8128918  -1.3446209
       187 0.0009143447 9.405003e-05  0.006224864 0.0004045245  0.006224864 0.0004045245 -4.205803e-06    270.4953    403.5029  65.8197875  -1.3449904  65.8197875  -1.3449904
       188  0.005334048 0.0002255241   0.02825944 0.0008664607   0.02825944 0.0008664607 -1.966482e-06   1008.4545    400.5990  65.8115857  -1.3450226  65.8115857  -1.3450226
       189 0.0004389521 6.650342e-05  0.004376314 0.0002898817  0.004376314 0.0002898817 -4.690671e-06   1200.5078    401.4999  65.8094512  -1.3450126  65.8094512  -1.3450126
       190  0.002259051 0.0001449408   0.01428281 0.0005957533   0.01428281 0.0005957533 -6.965428e-06    349.3556    400.7342  65.8189110  -1.3450211  65.8189110  -1.3450211
       191  0.000549555 7.435308e-05  0.006230955  0.000337468  0.006230955  0.000337468 -3.201408e-06    901.1916    400.6149  65.8127778  -1.3450225  65.8127778  -1.3450225
       192  0.001255365 0.0001102834  0.006978606 0.0004522721  0.006978606 0.0004522721 -6.554032e-06    606.4553    394.8105  65.8160536  -1.3450870  65.8160536  -1.3450870
       193 0.0004454601 6.650342e-05  0.004765309 0.0002955477  0.004765309 0.0002955477 -2.765113e-06    395.5062    394.5079  65.8183981  -1.3450903  65.8183981  -1.3450903
       194 0.0004413558 6.650342e-05  0.004193462 0.0002898817  0.004193462 0.0002898817 -6.723238e-06    647.5073    402.5043  65.8155973  -1.3450015  65.8155973  -1.3450015
       195 0.0006782989 8.144972e-05  0.004701448 0.0003308503  0.004701448 0.0003308503 6.901496e-07    519.0004    388.4961  65.8170256  -1.3451571  65.8170256  -1.3451571
       196  0.005266279 0.0002205669    0.0246163 0.0008891335    0.0246163 0.0008891335 -6.307036e-06    701.1023    354.4462  65.8150017  -1.3455355  65.8150017  -1.3455355
       197  0.003267996 0.0001628994   0.01751612 0.0006447745   0.01751612 0.0006447745 -3.065362e-06   1151.3066    351.8650  65.8099980  -1.3455641  65.8099980  -1.3455641
       198  0.003213355 0.0001727809   0.01680398 0.0006481951   0.01680398 0.0006481951 -7.38856e-06    651.1227    351.3297  65.8155572  -1.3455701  65.8155572  -1.3455701
       199 0.0007567118 8.797575e-05  0.008904728 0.0004004036  0.008904728 0.0004004036 1.396225e-07    428.2923    353.0034  65.8180337  -1.3455515  65.8180337  -1.3455515
       200  0.001766775 0.0001330068   0.01418936 0.0005759365   0.01418936 0.0005759365 -4.837527e-06   1201.3583    350.0029  65.8094417  -1.3455848  65.8094417  -1.3455848
       201  0.001774596 0.0001287833  0.009886577 0.0005140589  0.009886577 0.0005140589 -3.040743e-06   1100.6676    350.9291  65.8105608  -1.3455745  65.8105608  -1.3455745
       202  0.001527508 0.0001198907   0.01305662 0.0005075653   0.01305662 0.0005075653 -4.322681e-06    750.0093    351.0161  65.8144581  -1.3455736  65.8144581  -1.3455736
       203  0.001858955 0.0001371003   0.01500766 0.0005854567   0.01500766 0.0005854567 3.418907e-07    150.4046    350.9418  65.8211222  -1.3455744  65.8211222  -1.3455744
       204  0.005145452 0.0002255241   0.03305629 0.0008326217   0.03305629 0.0008326217 -6.351266e-06    859.7987    348.9726  65.8132379  -1.3455963  65.8132379  -1.3455963
       205  0.001224257 0.0001102834   0.01159303 0.0005064749   0.01159303 0.0005064749 -3.249882e-06   1013.2231    347.9826  65.8115327  -1.3456073  65.8115327  -1.3456073
       206  0.001964991 0.0001330068  0.007083261 0.0004875658  0.007083261 0.0004875658 -6.770262e-06    646.7264    344.0215  65.8156060  -1.3456513  65.8156060  -1.3456513
       207 0.0009769292 9.975513e-05  0.009635773 0.0004436331  0.009635773 0.0004436331 1.599625e-06    520.1065    338.6602  65.8170133  -1.3457109  65.8170133  -1.3457109
       208 0.0003277509 5.759365e-05  0.004045327 0.0002443492  0.004045327 0.0002443492 -4.395472e-06    371.3377    336.3242  65.8186667  -1.3457368  65.8186667  -1.3457368
       209 0.0004520426 6.650342e-05  0.004696673 0.0003083637  0.004696673 0.0003083637 -3.075615e-06    953.2427    327.7561  65.8121993  -1.3458320  65.8121993  -1.3458320
       210 0.0005652585 7.435308e-05  0.005762177 0.0003341755  0.005762177 0.0003341755 -4.108791e-06    597.7945    301.6002  65.8161499  -1.3461226  65.8161499  -1.3461226
       211 0.0009857259 9.975513e-05  0.009558721 0.0004398788  0.009558721 0.0004398788 7.494555e-07    552.6543    301.5591  65.8166516  -1.3461231  65.8166516  -1.3461231
       212 0.0003290056 5.759365e-05  0.002753446 0.0002303746  0.002753446 0.0002303746 -3.779489e-06    618.3298    285.6709  65.8159216  -1.3462996  65.8159216  -1.3462996
       213  0.001021855 9.975513e-05   0.00754799 0.0004004036   0.00754799 0.0004004036 -2.024038e-06   1000.9948    251.9927  65.8116686  -1.3466738  65.8116686  -1.3466738
       214  0.002272665  0.000141075    0.0105341 0.0005064749    0.0105341 0.0005064749 -1.491042e-07    630.4822    251.7220  65.8157866  -1.3466768  65.8157866  -1.3466768
       215   0.00113444 0.0001051511   0.01378754 0.0004725956   0.01378754 0.0004725956 -1.608887e-06    349.4909    252.1994  65.8189095  -1.3466715  65.8189095  -1.3466715
       216 0.0003261823 5.759365e-05  0.003444648 0.0002443492  0.003444648 0.0002443492 -2.404762e-06    850.6677    251.6647  65.8133394  -1.3466775  65.8133394  -1.3466775
       217 0.0009212134 9.405003e-05  0.008138055 0.0003948422  0.008138055 0.0003948422 1.067667e-06    450.8835    250.8707  65.8177827  -1.3466863  65.8177827  -1.3466863
       218  0.003184362 0.0001695511   0.01396212 0.0006309068   0.01396212 0.0006309068 -4.158849e-06     48.5509    250.3891  65.8222542  -1.3466916  65.8222542  -1.3466916
       219  0.001420157 0.0001198907   0.01328663 0.0005225916   0.01328663 0.0005225916 -2.188726e-06   1052.6089    246.8314  65.8110950  -1.3467312  65.8110950  -1.3467312
       220 0.0004367257 6.650342e-05  0.005242298 0.0002974123  0.005242298 0.0002974123 1.165815e-06    645.4974    246.5053  65.8156197  -1.3467348  65.8156197  -1.3467348
       221 0.0007575877 8.797575e-05   0.00942951 0.0003892013   0.00942951 0.0003892013 2.728653e-06    270.7007    237.4267  65.8197852  -1.3468357  65.8197852  -1.3468357
       222  0.001383576 0.0001151873  0.008851648 0.0004784088  0.008851648 0.0004784088 -1.767652e-06    300.8483   1099.9235  65.8194502  -1.3372524  65.8194502  -1.3372524
       223  0.000339733 5.759365e-05  0.003875084 0.0002443492  0.003875084 0.0002443492 3.472815e-06    602.3324   1200.3292  65.8160994  -1.3361368  65.8160994  -1.3361368
       224  0.002114011 0.0001449408   0.01305876  0.000635273   0.01305876  0.000635273 2.901605e-06   1200.3774   1201.5620  65.8094527  -1.3361231  65.8094527  -1.3361231
       225  0.001134188 0.0001051511  0.008018718 0.0004436331  0.008018718 0.0004436331 3.628774e-06    639.0040   1137.5045  65.8156918  -1.3368348  65.8156918  -1.3368348
       226  0.005256171  0.000218046   0.02142193 0.0006982859   0.02142193 0.0006982859 -2.27084e-06   1100.4277   1201.2068  65.8105635  -1.3361270  65.8105635  -1.3361270
       227 0.0004233479 6.650342e-05   0.00571502 0.0003154534   0.00571502 0.0003154534 1.240293e-06    862.0048   1196.2456  65.8132134  -1.3361821  65.8132134  -1.3361821
       228  0.001957345 0.0001330068   0.01054338 0.0005289008   0.01054338 0.0005289008 -2.697906e-06    452.0081   1201.6582  65.8177701  -1.3361220  65.8177701  -1.3361220
       229  0.003708539 0.0001910165   0.02530319 0.0008561912   0.02530319 0.0008561912 7.486109e-06    542.4363   1084.6096  65.8167651  -1.3374225  65.8167651  -1.3374225
       230  0.001565293 0.0001244165   0.01130449 0.0005320273   0.01130449 0.0005320273 -1.947698e-06    798.7168   1092.3413  65.8139168  -1.3373366  65.8139168  -1.3373366
       231 0.0004484309 6.650342e-05   0.00409583 0.0002898817   0.00409583 0.0002898817 -3.483315e-08     52.5131   1099.4967  65.8222102  -1.3372571  65.8222102  -1.3372571
       232 0.0003274927 5.759365e-05  0.003222453 0.0002443492  0.003222453 0.0002443492 -2.383725e-06    418.3322   1152.3346  65.8181444  -1.3366700  65.8181444  -1.3366700
       233 0.0005373814 7.435308e-05  0.005906867 0.0003341755  0.005906867 0.0003341755 2.985681e-06   1090.7979   1137.2021  65.8106705  -1.3368382  65.8106705  -1.3368382
       234   0.00149869 0.0001198907  0.009809656 0.0005009875  0.009809656 0.0005009875 2.469671e-06    893.5416   1144.8583  65.8128629  -1.3367531  65.8128629  -1.3367531
       235  0.006673482 0.0002532375   0.01800884 0.0008232736   0.01800884 0.0008232736 1.493661e-06    846.7589   1141.5043  65.8133828  -1.3367904  65.8133828  -1.3367904
       236 0.0003183036 5.759365e-05  0.004207871 0.0002443492  0.004207871 0.0002443492 2.056299e-06   1152.3297   1148.6683  65.8099867  -1.3367108  65.8099867  -1.3367108
       237  0.001265323 0.0001102834   0.01136979 0.0004807144   0.01136979 0.0004807144 -3.211439e-06    399.5532   1150.8038  65.8183531  -1.3366870  65.8183531  -1.3366870
       238 0.0008821324 9.405003e-05   0.01067544 0.0004271259   0.01067544 0.0004271259 -2.588487e-06    698.5036   1154.5129  65.8150306  -1.3366458  65.8150306  -1.3366458
       239 0.0003283719 5.759365e-05  0.003291816 0.0002443492  0.003291816 0.0002443492 8.647656e-06    598.3359   1155.6709  65.8161438  -1.3366330  65.8161438  -1.3366330
       240 0.0007003077 8.144972e-05  0.004796408 0.0003274913  0.004796408 0.0003274913 1.453925e-06    651.9886   1151.4927  65.8155475  -1.3366794  65.8155475  -1.3366794
       241  0.000574346 7.435308e-05   0.00605534 0.0003358258   0.00605534 0.0003358258 -4.528184e-06    301.3882   1150.8086  65.8194442  -1.3366870  65.8194442  -1.3366870
       242  0.009967078 0.0002936711   0.02862613 0.0009172892   0.02862613 0.0009172892 8.647656e-06    547.9300   1150.8065  65.8167041  -1.3366870  65.8167041  -1.3366870
       243 0.0008033398 8.797575e-05  0.009139458 0.0003948422  0.009139458 0.0003948422 2.138577e-06    949.4389   1150.7039  65.8122416  -1.3366881  65.8122416  -1.3366881
       244   0.00055573 7.435308e-05  0.005961799 0.0003341755  0.005961799 0.0003341755 3.338451e-06   1051.3954   1099.7974  65.8111085  -1.3372538  65.8111085  -1.3372538
       245 0.0006901438 8.144972e-05  0.004337538 0.0003455619  0.004337538 0.0003455619 1.817568e-07    840.3418    985.3310  65.8134541  -1.3385256  65.8134541  -1.3385256
       246  0.004270528 0.0001967198    0.0134521 0.0006203026    0.0134521 0.0006203026 8.478678e-06    599.9643   1100.3907  65.8161257  -1.3372472  65.8161257  -1.3372472
       247  0.001178129 0.0001051511   0.01000326 0.0004436331   0.01000326 0.0004436331 8.096097e-06    550.9794   1101.4994  65.8166702  -1.3372349  65.8166702  -1.3372349
       248  0.001004342 9.975513e-05  0.008771085 0.0004411338  0.008771085 0.0004411338 2.818059e-06    900.6652   1100.4506  65.8127837  -1.3372465  65.8127837  -1.3372465
       249  0.001373494 0.0001151873  0.009477285 0.0004852927  0.009477285 0.0004852927 1.961666e-06    652.4207   1100.7539  65.8155427  -1.3372432  65.8155427  -1.3372432
       250  0.002674179 0.0001559643   0.01280324 0.0006140322   0.01280324 0.0006140322 -1.986179e-06    748.9435   1102.0847  65.8144700  -1.3372284  65.8144700  -1.3372284
       251 0.0006905092 8.144972e-05  0.005161113 0.0003487469  0.005161113 0.0003487469 7.643835e-06    507.3367   1103.5024  65.8171552  -1.3372126  65.8171552  -1.3372126
       252  0.004484071 0.0002129148   0.02567303 0.0007479787   0.02567303 0.0007479787 3.077155e-06    945.6223   1096.2733  65.8122840  -1.3372929  65.8122840  -1.3372929
       253 0.0008485049 8.797575e-05  0.004430045 0.0003455619  0.004430045 0.0003455619 3.509321e-06    499.8682   1000.6981  65.8172382  -1.3383549  65.8172382  -1.3383549
       254 0.0005470993 7.435308e-05  0.006591246 0.0003341755  0.006591246 0.0003341755 9.224744e-07    403.8112   1006.6035  65.8183058  -1.3382893  65.8183058  -1.3382893
       255  0.001313889 0.0001102834   0.00816238 0.0004547103   0.00816238 0.0004547103 3.438188e-06    621.0076   1000.0118  65.8158919  -1.3383625  65.8158919  -1.3383625
       256 0.0005871579 7.435308e-05  0.004520341 0.0003083637  0.004520341 0.0003083637 3.317608e-06   1050.8005   1001.3973  65.8111151  -1.3383471  65.8111151  -1.3383471
       257  0.002262925 0.0001487062   0.01386666 0.0006140322   0.01386666 0.0006140322 3.190604e-06    649.5160   1052.4827  65.8155750  -1.3377795  65.8155750  -1.3377795
       258  0.001668424 0.0001244165  0.008895428 0.0004852927  0.008895428 0.0004852927  6.21376e-07    269.4927   1052.3055  65.8197986  -1.3377815  65.8197986  -1.3377815
       259  0.004470992 0.0002049773   0.02119612 0.0007662337   0.02119612 0.0007662337 2.717716e-06    898.3203   1050.4316  65.8128098  -1.3378023  65.8128098  -1.3378023
       260  0.003942072 0.0001881001   0.01081393 0.0005701481   0.01081393 0.0005701481 7.753526e-06    602.2386   1051.0685  65.8161005  -1.3377952  65.8161005  -1.3377952
       261  0.001613462 0.0001244165   0.01313264 0.0005382259   0.01313264 0.0005382259 3.337553e-06    968.1514   1004.3042  65.8120337  -1.3383148  65.8120337  -1.3383148
       262  0.001832156 0.0001330068   0.01435819 0.0005682054   0.01435819 0.0005682054 7.990052e-06    594.4692   1058.3752  65.8161868  -1.3377140  65.8161868  -1.3377140
       263  0.002352996 0.0001449408   0.01173864 0.0005494084   0.01173864 0.0005494084 2.176506e-06   1100.5992   1049.6777  65.8105616  -1.3378107  65.8105616  -1.3378107
       264  0.001183628 0.0001051511  0.007620837 0.0004284183  0.007620837 0.0004284183 -7.097876e-06   1161.5098    997.0185  65.8098846  -1.3383958  65.8098846  -1.3383958
       265  0.001235127 0.0001051511  0.008981909 0.0004461185  0.008981909 0.0004461185 -6.932755e-06   1147.5081    994.7900  65.8100403  -1.3384205  65.8100403  -1.3384205
       266  0.001144827 0.0001051511  0.008862094 0.0004448775  0.008862094 0.0004448775 6.956862e-06    556.0100   1055.7878  65.8166143  -1.3377428  65.8166143  -1.3377428
       267 0.0009136014 9.405003e-05   0.00663703 0.0003906191   0.00663703 0.0003906191 -1.272907e-06    800.5009   1001.0013  65.8138969  -1.3383515  65.8138969  -1.3383515
       268   0.00355076 0.0001821271   0.01957898 0.0007300246   0.01957898 0.0007300246 -5.753516e-07    716.6581    988.4265  65.8148288  -1.3384912  65.8148288  -1.3384912
       269  0.001490805 0.0001198907   0.01314921 0.0005172752   0.01314921 0.0005172752 2.865949e-06    200.6163   1049.6104  65.8205641  -1.3378114  65.8205641  -1.3378114
