#   1 NUMBER                 Running object number                                     
#   2 FLUX_ISO               Isophotal flux                                             [count]
#   3 FLUXERR_ISO            RMS error for isophotal flux                               [count]
#   4 FLUX_AUTO              Flux within a Kron-like elliptical aperture                [count]
#   5 FLUXERR_AUTO           RMS error for AUTO flux                                    [count]
#   6 FLUX_BEST              Best of FLUX_AUTO and FLUX_ISOCOR                          [count]
#   7 FLUXERR_BEST           RMS error for BEST flux                                    [count]
#   8 BACKGROUND             Background at centroid position                            [count]
#   9 X_IMAGE                Object position along x                                    [pixel]
#  10 Y_IMAGE                Object position along y                                    [pixel]
#  11 ALPHA_SKY              Right ascension of barycenter (native)                     [deg]
#  12 DELTA_SKY              Declination of barycenter (native)                         [deg]
#  13 ALPHA_J2000            Right ascension of barycenter (J2000)                      [deg]
#  14 DELTA_J2000            Declination of barycenter (J2000)                          [deg]
         1   0.00183327 0.0001356338  0.008686267 0.0004525646  0.008686267 0.0004525646 -3.393983e-06    671.8744     12.1083  65.8153265  -1.3493392  65.8153265  -1.3493392
         2  0.005224335 0.0002130214   0.01146725 0.0005625125   0.01146725 0.0005625125 1.995686e-06    661.4590     55.4787  65.8154423  -1.3488573  65.8154423  -1.3488573
         3   0.00468993  0.000210123   0.01901926 0.0008069926   0.01901926 0.0008069926 -6.730626e-06   1151.3259     48.6934  65.8099978  -1.3489327  65.8099978  -1.3489327
         4  0.001669323 0.0001310347   0.01082524 0.0005357106   0.01082524 0.0005357106 -6.59859e-06    608.1482     40.6390  65.8160348  -1.3490222  65.8160348  -1.3490222
         5  0.009315143 0.0003053016   0.03175849  0.001028792   0.03175849  0.001028792 -3.220243e-06    401.3614     52.7643  65.8183331  -1.3488875  65.8183331  -1.3488875
         6  0.004982899 0.0002187029   0.02227976 0.0007592263   0.02227976 0.0007592263 1.785419e-06    750.9600     50.0483  65.8144475  -1.3489177  65.8144475  -1.3489177
         7  0.003642536 0.0001918152   0.01983717 0.0007379277   0.01983717 0.0007379277 -4.989491e-06    607.7645     57.2696  65.8160390  -1.3488374  65.8160390  -1.3488374
         8  0.001886517 0.0001356338   0.01085978  0.000554829   0.01085978  0.000554829 -7.237222e-06   1145.6621     43.4696  65.8100608  -1.3489907  65.8100608  -1.3489907
         9  0.002287223 0.0001485794   0.01541448 0.0006156042   0.01541448 0.0006156042 -7.512474e-06    452.1141     51.1024  65.8177690  -1.3489059  65.8177690  -1.3489059
        10  0.001481261 0.0001213146  0.009454285 0.0005014172  0.009454285 0.0005014172 7.211681e-08    650.9883     50.8372  65.8155587  -1.3489089  65.8155587  -1.3489089
        11  0.001711214 0.0001310347  0.008550996 0.0005146941  0.008550996 0.0005146941 -6.196294e-06    897.5001     49.7208  65.8128189  -1.3489213  65.8128189  -1.3489213
        12  0.004166406 0.0002011774   0.01960057 0.0007993577   0.01960057 0.0007993577 3.628058e-06    704.6257     55.2802  65.8149625  -1.3488595  65.8149625  -1.3488595
        13  0.002195537 0.0001485794    0.0120788  0.000591214    0.0120788  0.000591214 -3.699087e-06    202.4772     50.3905  65.8205435  -1.3489139  65.8205435  -1.3489139
        14 0.0004400824 7.004099e-05   0.00576253 0.0003132329   0.00576253 0.0003132329 -3.355003e-06    818.4994     45.4996  65.8136969  -1.3489682  65.8136969  -1.3489682
        15  0.002144083 0.0001485794   0.01448775 0.0006323116   0.01448775 0.0006323116 -1.816698e-06   1060.8467     58.3799  65.8110034  -1.3488251  65.8110034  -1.3488251
        16  0.002859175 0.0001679524   0.01957053  0.000706512   0.01957053  0.000706512 -5.361632e-06    851.9424     51.0934  65.8133252  -1.3489060  65.8133252  -1.3489060
        17 0.0009824811 9.905293e-05    0.0056388 0.0004023549    0.0056388 0.0004023549 -1.067151e-05    479.6113     51.7426  65.8174634  -1.3488988  65.8174634  -1.3488988
        18  0.003036748 0.0001751025    0.0103266 0.0005111073    0.0103266 0.0005111073 -1.103362e-05    555.5251     56.2924  65.8166196  -1.3488483  65.8166196  -1.3488483
        19 0.0005915952 7.830821e-05  0.006229888 0.0003519517  0.006229888 0.0003519517 -1.569131e-06   1053.2019     51.4005  65.8110884  -1.3489026  65.8110884  -1.3489026
        20   0.00178869 0.0001356338   0.00846986 0.0004737485   0.00846986 0.0004737485 -3.443284e-06    609.0007     71.0134  65.8160253  -1.3486847  65.8160253  -1.3486847
        21  0.003770022 0.0001885911   0.01030953 0.0006065728   0.01030953 0.0006065728 5.548977e-06    656.6361     83.1457  65.8154959  -1.3485499  65.8154959  -1.3485499
        22  0.002571477 0.0001566164  0.006074055 0.0004659174  0.006074055 0.0004659174 2.525059e-06    644.7570     75.1573  65.8156279  -1.3486387  65.8156279  -1.3486387
        23   0.01227664 0.0003209682    0.0362536  0.001236179    0.0362536  0.001236179 -1.021447e-05    554.5628     98.8060  65.8166303  -1.3483759  65.8166303  -1.3483759
        24  0.008272764 0.0002712676   0.01990133 0.0008183115   0.01996258  0.001158105 -9.882532e-06    550.5787    105.8043  65.8166746  -1.3482981  65.8166746  -1.3482981
        25  0.002836519 0.0001642607   0.01459774 0.0006428909   0.01459774 0.0006428909 6.995479e-06    652.7874     98.5280  65.8155387  -1.3483790  65.8155387  -1.3483790
        26  0.002160627 0.0001485794   0.01005668 0.0004927821   0.01005668 0.0004927821 1.803273e-06    303.7860    100.6045  65.8194175  -1.3483559  65.8194175  -1.3483559
        27  0.001801514 0.0001310347  0.009102399 0.0005241388  0.009102399 0.0005241388 8.586963e-06    749.4868    100.9940  65.8144639  -1.3483516  65.8144639  -1.3483516
        28  0.001228916 0.0001107445  0.009557997 0.0004632777  0.009557997 0.0004632777 -2.339429e-07    611.9811     98.1956  65.8159922  -1.3483827  65.8159922  -1.3483827
        29  0.001396667 0.0001161499  0.008966654 0.0004750412  0.008966654 0.0004750412 -5.782541e-06    400.8861    101.7980  65.8183383  -1.3483427  65.8183383  -1.3483427
        30 0.0008355106 9.265553e-05  0.006897344 0.0003852255  0.006897344 0.0003852255 5.365316e-06    642.4149    106.2641  65.8156539  -1.3482930  65.8156539  -1.3482930
        31 0.0009444515 9.905293e-05  0.008911956 0.0004231543  0.008911956 0.0004231543 1.889277e-06    307.8745    107.1208  65.8193721  -1.3482835  65.8193721  -1.3482835
        32  0.001359314 0.0001213146   0.01312742 0.0004632777   0.01312742 0.0004632777 -1.91281e-07    609.8738    111.7513  65.8160156  -1.3482321  65.8160156  -1.3482321
        33  0.002737796 0.0001642607  0.009731416  0.000567937  0.009731416  0.000567937 -6.561498e-06    459.9096    167.5126  65.8176823  -1.3476125  65.8176823  -1.3476125
        34 0.0005773111 7.830821e-05  0.005468151 0.0003519517  0.005468151 0.0003519517 8.397204e-07    329.1942    114.3927  65.8191351  -1.3482027  65.8191351  -1.3482027
        35  0.001187248 0.0001107445  0.007129026 0.0004512076  0.007129026 0.0004512076 -4.441824e-06    568.5023    128.5011  65.8164754  -1.3480460  65.8164754  -1.3480460
        36  0.004418846  0.000210123   0.01415686 0.0006561088   0.01415686 0.0006561088 -6.584297e-06    439.0090    167.8169  65.8179146  -1.3476091  65.8179146  -1.3476091
        37  0.001235195 0.0001107445  0.006466886 0.0004345929  0.006466886 0.0004345929 -6.038394e-06    407.7999    140.5058  65.8182615  -1.3479126  65.8182615  -1.3479126
        38 0.0004587307 7.004099e-05  0.004101192 0.0003053016  0.004101192 0.0003053016 -8.878727e-07    596.4975    138.4975  65.8161643  -1.3479349  65.8161643  -1.3479349
        39   0.00140439 0.0001161499  0.007919107 0.0004552665  0.007919107 0.0004552665 -3.085322e-06    550.9119    151.6366  65.8166709  -1.3477889  65.8166709  -1.3477889
        40  0.001544073 0.0001262682   0.01306721 0.0005515034   0.01306721 0.0005515034 4.952747e-06    302.9321    151.0768  65.8194270  -1.3477951  65.8194270  -1.3477951
        41 0.0008165106 9.265553e-05  0.008107513 0.0004053916  0.008107513 0.0004053916 1.276164e-05    699.9948    151.7081  65.8150140  -1.3477881  65.8150140  -1.3477881
        42 0.0004626184 7.004099e-05  0.006718113 0.0003340743  0.006718113 0.0003340743 -2.020819e-06   1102.4913    150.7547  65.8105406  -1.3477987  65.8105406  -1.3477987
        43 0.0003516572 6.065728e-05  0.004063401  0.000257347  0.004063401  0.000257347 -5.478028e-06    507.3296    154.6756  65.8171553  -1.3477551  65.8171553  -1.3477551
        44 0.0004590944 7.004099e-05  0.006489024 0.0003340743  0.006489024 0.0003340743 3.241743e-06    133.7556    161.9996  65.8213073  -1.3476737  65.8213073  -1.3476737
        45  0.003135536 0.0001715647   0.01488139 0.0006907122   0.01488139 0.0006907122 7.429714e-07    597.8586    168.2598  65.8161491  -1.3476042  65.8161491  -1.3476042
        46 0.0004959761 7.004099e-05  0.004721367  0.000322873  0.004721367  0.000322873 1.245086e-05    712.7632    165.0051  65.8148721  -1.3476404  65.8148721  -1.3476404
        47  0.008328093  0.000280164   0.03481745  0.000978696   0.03481745  0.000978696 2.472445e-06    603.1580    203.1018  65.8160902  -1.3472171  65.8160902  -1.3472171
        48   0.00188234  0.000140082   0.02134831 0.0006579754   0.02134831 0.0006579754 -7.046866e-06   1215.8007    176.8886  65.8092812  -1.3475083  65.8092812  -1.3475083
        49  0.001813607 0.0001356338   0.01320173 0.0004877791   0.01320173 0.0004877791 -2.596218e-06   1159.5007    179.0124  65.8099069  -1.3474847  65.8099069  -1.3474847
        50 0.0003541491 6.065728e-05  0.003591293 0.0002525364  0.003591293 0.0002525364 -3.124228e-07   1012.3317    181.3399  65.8115426  -1.3474589  65.8115426  -1.3474589
        51  0.001801937 0.0001356338   0.01565821 0.0005943176   0.01565821 0.0005943176 1.187705e-05    694.5453    189.7776  65.8150746  -1.3473651  65.8150746  -1.3473651
        52  0.002009738  0.000140082  0.008820451 0.0005217937  0.008820451 0.0005217937 8.191569e-06    643.9910    195.7140  65.8156364  -1.3472992  65.8156364  -1.3472992
        53  0.003061346 0.0001604841  0.008742695 0.0005206171  0.008742695 0.0005206171 1.105536e-05    662.2042    197.6022  65.8154340  -1.3472782  65.8154340  -1.3472782
        54  0.003643432 0.0001918152   0.01665458 0.0005470377   0.01665458 0.0005470377 -2.317402e-06   1147.4918    192.0032  65.8100404  -1.3473404  65.8100404  -1.3473404
        55  0.001260898 0.0001161499   0.01052276 0.0005299563   0.01052276 0.0005299563 -2.142351e-06    103.1925    199.2204  65.8216470  -1.3472602  65.8216470  -1.3472602
        56  0.005416956 0.0002375206   0.03002976 0.0008513655   0.03002976 0.0008513655 1.087321e-05    705.8206    196.7097  65.8149492  -1.3472881  65.8149492  -1.3472881
        57  0.001671714 0.0001262682   0.01214057 0.0005135013   0.01214057 0.0005135013 9.761665e-06    654.3650    200.3774  65.8155211  -1.3472473  65.8155211  -1.3472473
        58  0.000752168 8.578235e-05  0.004406423 0.0003413376  0.004406423 0.0003413376 7.531662e-06    750.8237    201.1689  65.8144491  -1.3472385  65.8144491  -1.3472385
        59  0.001218491 0.0001107445  0.006931639 0.0003977564  0.006931639 0.0003977564 6.159632e-06    644.6954    246.5598  65.8156286  -1.3467342  65.8156286  -1.3467342
        60 0.0003559526 6.065728e-05  0.003271439 0.0002426291  0.003271439 0.0002426291 2.349256e-06    349.6700    200.6693  65.8189076  -1.3472441  65.8189076  -1.3472441
        61 0.0004726446 7.004099e-05    0.0044654 0.0003053016    0.0044654 0.0003053016 6.379717e-06    250.4985    200.4933  65.8200098  -1.3472460  65.8200098  -1.3472460
        62 0.0007415623 8.578235e-05   0.00344937 0.0003285214   0.00344937 0.0003285214 -2.983346e-06    488.4926    205.0063  65.8173647  -1.3471959  65.8173647  -1.3471959
        63 0.0006074595 7.830821e-05  0.004845856 0.0003322336  0.004845856 0.0003322336 1.538783e-06    585.3961    209.2125  65.8162877  -1.3471492  65.8162877  -1.3471492
        64 0.0004525059 7.004099e-05  0.005504275 0.0003132329  0.005504275 0.0003132329 2.735018e-06    344.4993    211.5057  65.8189650  -1.3471237  65.8189650  -1.3471237
        65  0.007499688 0.0002620694   0.01893381 0.0007632541   0.01893381 0.0007632541  4.51755e-06    630.4523    251.7446  65.8157869  -1.3466766  65.8157869  -1.3466766
        66  0.001740365 0.0001356338   0.01242262 0.0005849577   0.01242262 0.0005849577 -1.243433e-06    451.0723    243.3526  65.8177806  -1.3467698  65.8177806  -1.3467698
        67  0.001477709 0.0001213146   0.01056857 0.0005001927   0.01056857 0.0005001927 3.027504e-06    968.2639   1004.5740  65.8120324  -1.3383118  65.8120324  -1.3383118
        68   0.00242813 0.0001604841   0.01502097 0.0005481575   0.01502097 0.0005481575 -2.603226e-06   1171.0002   1244.8398  65.8097792  -1.3356422  65.8097792  -1.3356422
        69 0.0007203306 8.578235e-05  0.005184209 0.0003672981  0.005184209 0.0003672981 -1.192842e-05    490.3277   1237.1633  65.8173443  -1.3357275  65.8173443  -1.3357275
        70   0.00179823 0.0001310347   0.01311903 0.0005459156   0.01311903 0.0005459156 -8.167165e-06    587.1938   1230.3557  65.8162677  -1.3358031  65.8162677  -1.3358031
        71 0.0009870055 9.905293e-05  0.007652973 0.0004158454  0.007652973 0.0004158454 -1.222746e-05    351.8694   1200.8801  65.8188831  -1.3361306  65.8188831  -1.3361306
        72  0.001587844 0.0001310347   0.01024893 0.0004539175   0.01024893 0.0004539175 -6.25704e-06    645.1673   1195.8354  65.8156233  -1.3361867  65.8156233  -1.3361867
        73  0.005700841 0.0002426291   0.01723871 0.0008542418   0.01723871 0.0008542418 3.700446e-06    648.7408   1082.5354  65.8155836  -1.3374456  65.8155836  -1.3374456
        74  0.002233548 0.0001485794   0.01225393 0.0005932848   0.01225393 0.0005932848  8.48527e-07    716.9796    988.7048  65.8148252  -1.3384881  65.8148252  -1.3384881
        75 0.0003429331 6.065728e-05  0.003516349  0.000257347  0.003516349  0.000257347 -3.066436e-06    839.6670    985.6666  65.8134616  -1.3385219  65.8134616  -1.3385219
        76  0.001406313 0.0001161499  0.008055817 0.0004724523  0.008055817 0.0004724523 -5.611655e-07    608.1796    963.8234  65.8160344  -1.3387646  65.8160344  -1.3387646
        77 0.0004698103 7.004099e-05  0.004659277 0.0003053016  0.004659277 0.0003053016 1.895154e-06    138.4977    955.5009  65.8212545  -1.3388571  65.8212545  -1.3388571
        78  0.001344881 0.0001107445  0.004963849 0.0003931041  0.004963849 0.0003931041 -1.150171e-06    800.9959    950.7827  65.8138914  -1.3389095  65.8138914  -1.3389095
        79  0.000726722 8.578235e-05  0.004903862 0.0003449119  0.004903862 0.0003449119 3.187275e-06    151.1827    950.8470  65.8211136  -1.3389088  65.8211136  -1.3389088
        80 0.0007274223 8.578235e-05  0.004744829 0.0003466852  0.004744829 0.0003466852 -1.254448e-06    501.8191    950.1680  65.8172165  -1.3389163  65.8172165  -1.3389163
        81 0.0009177024 9.905293e-05  0.009161126 0.0004415917  0.009161126 0.0004415917 4.603032e-06    715.1208    942.8766  65.8148459  -1.3389973  65.8148459  -1.3389973
        82 0.0004632639 7.004099e-05  0.004699856 0.0003092927  0.004699856 0.0003092927 -3.530666e-06   1146.5001    942.5094  65.8100515  -1.3390014  65.8100515  -1.3390014
        83  0.001351831 0.0001161499   0.01029501 0.0004788981   0.01029501 0.0004788981 -2.398061e-06    491.1058    933.6331  65.8173356  -1.3391000  65.8173356  -1.3391000
        84  0.001794513 0.0001310347  0.009614014 0.0005299563  0.009614014 0.0005299563 -7.510765e-07    842.8133    929.0707  65.8134267  -1.3391507  65.8134267  -1.3391507
        85 0.0006126613 7.830821e-05  0.003840091  0.000322873  0.003840091  0.000322873 -1.612954e-06    328.2113    923.5946  65.8191460  -1.3392116  65.8191460  -1.3392116
        86  0.005644644 0.0002400884   0.03434671 0.0008642332   0.03434671 0.0008642332 -3.889555e-06    401.5752    917.9072  65.8183307  -1.3392748  65.8183307  -1.3392748
        87 0.0009507618 9.905293e-05  0.004272962 0.0003053016  0.004272962 0.0003053016 -8.219823e-08    826.4986    907.4941  65.8136080  -1.3393905  65.8136080  -1.3393905
        88  0.003887871 0.0001949859   0.01687947 0.0007551771   0.01687947 0.0007551771   3.0015e-06    239.0346    902.8270  65.8201372  -1.3394423  65.8201372  -1.3394423
        89  0.003474364 0.0001785702   0.02280778 0.0007047739   0.02280778 0.0007047739 4.034593e-07    702.6191    901.3961  65.8149848  -1.3394582  65.8149848  -1.3394582
        90 0.0007259182 8.578235e-05  0.005820947 0.0003554192  0.005820947 0.0003554192 -5.248308e-06    391.9836    903.5064  65.8184373  -1.3394348  65.8184373  -1.3394348
        91   0.00117695 0.0001107445   0.01232364 0.0004952647   0.01232364 0.0004952647 -3.079313e-07   1100.7042    901.6976  65.8105604  -1.3394549  65.8105604  -1.3394549
        92  0.001754478 0.0001310347   0.01149544 0.0005436643   0.01149544 0.0005436643 -5.347221e-06    350.0281    902.6080  65.8189036  -1.3394448  65.8189036  -1.3394448
        93  0.001324179 0.0001161499  0.009756125 0.0004977348  0.009756125 0.0004977348 1.507675e-06    771.3587    900.0038  65.8142208  -1.3394737  65.8142208  -1.3394737
        94  0.000475914 7.004099e-05  0.004527024 0.0003053016  0.004527024 0.0003053016 -6.438313e-06    501.0012    900.4902  65.8172256  -1.3394683  65.8172256  -1.3394683
        95 0.0003512573 6.065728e-05   0.00365042 0.0002525364   0.00365042 0.0002525364 -5.672542e-06    456.3338    899.3231  65.8177221  -1.3394813  65.8177221  -1.3394813
        96  0.001474645 0.0001213146   0.00752793 0.0004388056   0.00752793 0.0004388056 -9.497272e-06    547.3336    893.1100  65.8167107  -1.3395503  65.8167107  -1.3395503
        97  0.001509812 0.0001213146  0.008708329 0.0004827243  0.008708329 0.0004827243 -9.504792e-07    719.6860    888.3293  65.8147951  -1.3396034  65.8147951  -1.3396034
        98  0.002794186 0.0001604841   0.01166185 0.0006095981   0.01166185 0.0006095981 -1.108862e-05    508.7984    869.2952  65.8171390  -1.3398149  65.8171390  -1.3398149
        99 0.0004717844 7.004099e-05  0.006070048 0.0003303827  0.006070048 0.0003303827 -7.530108e-06    340.7581    856.2457  65.8190066  -1.3399599  65.8190066  -1.3399599
       100  0.004577792 0.0002130214   0.02618708 0.0007939696   0.02618708 0.0007939696 -3.294175e-06    748.7566    853.3018  65.8144720  -1.3399926  65.8144720  -1.3399926
       101 0.0006031698 7.830821e-05    0.0051917 0.0003303827    0.0051917 0.0003303827 -7.748594e-06    702.3991    851.1874  65.8149873  -1.3400161  65.8149873  -1.3400161
       102  0.001814527 0.0001310347   0.01078933 0.0005299563   0.01078933 0.0005299563  -2.9901e-06     50.0939    850.8368  65.8222371  -1.3400200  65.8222371  -1.3400200
       103 0.0009743774 9.265553e-05  0.004842013 0.0003605581  0.004842013 0.0003605581 -9.200404e-06    402.9993    849.0156  65.8183148  -1.3400402  65.8183148  -1.3400402
       104  0.002481213 0.0001604841   0.01183205 0.0005570351   0.01183205 0.0005570351 -1.169723e-06    932.5272    846.6670  65.8124296  -1.3400663  65.8124296  -1.3400663
       105 0.0006073522 7.830821e-05  0.005996544 0.0003413376  0.005996544 0.0003413376 -9.324292e-06    352.8067    845.3843  65.8188727  -1.3400806  65.8188727  -1.3400806
       106  0.001127054 9.905293e-05  0.003976372 0.0003706221  0.003976372 0.0003706221 -1.481669e-05    591.4886    853.5319  65.8162199  -1.3399901  65.8162199  -1.3399901
       107  0.001993436  0.000140082   0.01107887 0.0005515034   0.01107887 0.0005515034 -1.006097e-05    490.5261    853.0062  65.8173421  -1.3399959  65.8173421  -1.3399959
       108  0.001242408 0.0001107445   0.01099681 0.0004750412   0.01099681 0.0004750412 3.682359e-06   1127.2141    840.0034  65.8102658  -1.3401404  65.8102658  -1.3401404
       109  0.001500229 0.0001213146  0.008792252 0.0004852583  0.008792252 0.0004852583 2.627593e-06   1044.8075    838.0972  65.8111817  -1.3401616  65.8111817  -1.3401616
       110  0.001010483 9.905293e-05  0.005161915 0.0003962117  0.005161915 0.0003962117 -8.276437e-06    708.8661    837.8714  65.8149154  -1.3401641  65.8149154  -1.3401641
       111  0.001191907 0.0001050615  0.004138239   0.00038042  0.004138239   0.00038042 -1.454747e-05    620.5657    833.7761  65.8158968  -1.3402096  65.8158968  -1.3402096
       112  0.000639541 7.830821e-05  0.003494802 0.0003209682  0.003494802 0.0003209682 -1.41249e-05    631.1734    831.6087  65.8157789  -1.3402337  65.8157789  -1.3402337
       113 0.0003521478 6.065728e-05  0.002856253 0.0002426291  0.002856253 0.0002426291  2.45051e-06   1022.3316    827.6723  65.8114315  -1.3402774  65.8114315  -1.3402774
       114 0.0006014984 7.830821e-05  0.004997788 0.0003431294  0.004997788 0.0003431294 -1.52808e-05    575.7853    813.4018  65.8163945  -1.3404360  65.8163945  -1.3404360
       115   0.00210238 0.0001485794   0.01730855 0.0006195758   0.01730855 0.0006195758 5.165081e-06   1070.5214    802.4464  65.8108959  -1.3405577  65.8108959  -1.3405577
       116  0.001856511 0.0001356338  0.006645608 0.0004685423  0.006645608 0.0004685423 -1.559816e-05    602.5179    801.8436  65.8160974  -1.3405644  65.8160974  -1.3405644
       117  0.001034296 0.0001050615  0.008626106 0.0004443603  0.008626106 0.0004443603 -1.49981e-05    648.0153    802.0062  65.8155917  -1.3405626  65.8155917  -1.3405626
       118 0.0007147397 8.578235e-05  0.002434613 0.0003285214  0.002434613 0.0003285214 -1.54589e-05    620.0109    802.4960  65.8159029  -1.3405571  65.8159029  -1.3405571
       119  0.001620544 0.0001213146  0.008617919 0.0004566114  0.008617919 0.0004566114 -1.071671e-08    200.0836    801.0977  65.8205701  -1.3405727  65.8205701  -1.3405727
       120 0.0003527817 6.065728e-05  0.003634708  0.000257347  0.003634708  0.000257347 -1.087947e-05    719.3380    800.6757  65.8147990  -1.3405774  65.8147990  -1.3405774
       121 0.0003601581 6.065728e-05  0.003298679 0.0002426291  0.003298679 0.0002426291 -1.037529e-05    351.3333    800.3288  65.8188891  -1.3405812  65.8188891  -1.3405812
       122  0.001715526 0.0001310347  0.009509185  0.000567937  0.009509185  0.000567937 -1.359467e-05    684.7034    801.8254  65.8151839  -1.3405646  65.8151839  -1.3405646
       123  0.001940988 0.0001310347  0.005740518 0.0004289118  0.005740518 0.0004289118 -1.540376e-05    615.3544    794.7758  65.8159547  -1.3406429  65.8159547  -1.3406429
       124  0.001452622 0.0001262682  0.008866459 0.0004443603  0.008866459 0.0004443603  5.64817e-07    197.9953    790.8785  65.8205933  -1.3406862  65.8205933  -1.3406862
       125 0.0004748283 7.004099e-05  0.005554603 0.0003247667  0.005554603 0.0003247667 1.301773e-06    192.0084    781.7593  65.8206598  -1.3407875  65.8206598  -1.3407875
       126  0.005378726 0.0002242406   0.02075972 0.0008016559   0.02075972 0.0008016559 -1.114944e-05    552.5062    774.1913  65.8166532  -1.3408716  65.8166532  -1.3408716
       127  0.002236474 0.0001485794   0.01456081 0.0006598367    0.0075284 0.0006952091 -1.131283e-05    560.6002    770.9345  65.8165632  -1.3409078  65.8165632  -1.3409078
       128  0.001039002 9.905293e-05  0.007836074 0.0004023549  0.007836074 0.0004023549 -9.763906e-06    555.5058    763.4773  65.8166199  -1.3409907  65.8166199  -1.3409907
       129 0.0007155537 8.578235e-05  0.005545219 0.0003788046  0.005545219 0.0003788046 2.110675e-06    185.6582    762.6672  65.8207304  -1.3409997  65.8207304  -1.3409997
       130  0.002336812 0.0001566164   0.01809936 0.0007108385   0.01809936 0.0007108385 -8.096106e-06    737.6737    759.4627  65.8145952  -1.3410353  65.8145952  -1.3410353
       131  0.007214982 0.0002451435   0.01500678 0.0007877667   0.01500678 0.0007877667 -1.398263e-05    618.8169    751.3789  65.8159162  -1.3411251  65.8159162  -1.3411251
       132  0.002750541 0.0001642607   0.01274581 0.0006156042   0.01274581 0.0006156042 -5.755919e-06    801.0753    753.1514  65.8138906  -1.3411054  65.8138906  -1.3411054
       133  0.007740609 0.0002757517   0.02431847  0.001024611   0.02431847  0.001024611 -1.150141e-05    653.8495    747.2615  65.8155269  -1.3411708  65.8155269  -1.3411708
       134 0.0007181038 8.578235e-05  0.004110798 0.0003340743  0.004110798 0.0003340743 -9.449695e-06    700.5089    752.4994  65.8150083  -1.3411126  65.8150083  -1.3411126
       135  0.002577755 0.0001526508   0.01821807 0.0006254861  0.006482165 0.0006608851 -6.665744e-06    549.2986    748.3002  65.8166888  -1.3411593  65.8166888  -1.3411593
       136  0.003530616 0.0001785702   0.01830307 0.0007278874   0.01830307 0.0007278874 -5.571208e-06    547.4519    742.5125  65.8167094  -1.3412236  65.8167094  -1.3412236
       137 0.0008184164 9.265553e-05  0.007983529  0.000394661  0.007983529  0.000394661 -3.408435e-06    884.4247    746.2835  65.8129642  -1.3411817  65.8129642  -1.3411817
       138  0.001190718 0.0001050615  0.003324046 0.0003466852  0.003324046 0.0003466852 -1.255215e-05    636.9192    744.6662  65.8157150  -1.3411997  65.8157150  -1.3411997
       139  0.004310828 0.0001981059   0.02155974 0.0007387582   0.02155974 0.0007387582 -2.132949e-06    446.3329    743.2458  65.8178332  -1.3412155  65.8178332  -1.3412155
       140  0.005879411 0.0002214891   0.01181196 0.0004429782   0.01181196 0.0004429782 -9.87558e-06    657.9405    734.8042  65.8154814  -1.3413093  65.8154814  -1.3413093
       141  0.004579929 0.0002042028   0.02511238 0.0007362638   0.02511238 0.0007362638 -1.02458e-06    494.5453    712.6693  65.8172974  -1.3415552  65.8172974  -1.3415552
       142  0.003927216 0.0001885911   0.01023749 0.0006106033   0.01023749 0.0006106033 6.920321e-07    646.0961    703.3964  65.8156130  -1.3416582  65.8156130  -1.3416582
       143  0.002740094 0.0001604841  0.005529769 0.0002823443  0.005529769 0.0002823443 -2.489424e-07    636.6472    704.8629  65.8157180  -1.3416419  65.8157180  -1.3416419
       144   0.00150098 0.0001213146   0.01026233 0.0004965013   0.01026233 0.0004965013 -1.050395e-06    539.1481    704.9272  65.8168017  -1.3416412  65.8168017  -1.3416412
       145  0.001719575 0.0001262682  0.006065032 0.0004402008  0.006065032 0.0004402008 -6.541057e-07    499.8391    703.0941  65.8172385  -1.3416616  65.8172385  -1.3416616
       146  0.001545498 0.0001262682   0.01226338 0.0005581349   0.01226338 0.0005581349 -3.145898e-08    899.0665    700.6959  65.8128015  -1.3416882  65.8128015  -1.3416882
       147  0.000482046 7.004099e-05  0.003695558 0.0003053016  0.003695558 0.0003053016 -8.70475e-07    452.0013    700.4973  65.8177702  -1.3416904  65.8177702  -1.3416904
       148 0.0006086713 7.830821e-05   0.00512531 0.0003322336   0.00512531 0.0003322336 -2.640312e-06     51.2040    700.6036  65.8222247  -1.3416893  65.8222247  -1.3416893
       149  0.009935524 0.0002971588   0.02211768  0.000892851   0.02211768  0.000892851 3.791729e-06    672.9439    694.6225  65.8153146  -1.3417557  65.8153146  -1.3417557
       150 0.0005979684 7.830821e-05  0.005455389 0.0003431294  0.005455389 0.0003431294 1.831846e-06    368.2077    693.5965  65.8187015  -1.3417671  65.8187015  -1.3417671
       151   0.01346451  0.000311269   0.04611125   0.00123469   0.04611125   0.00123469 1.167259e-05    636.6895    661.7283  65.8157176  -1.3421212  65.8157176  -1.3421212
       152  0.002292197  0.000140082  0.004296235 0.0002400884  0.004296235 0.0002400884 1.186173e-05    629.5800    665.4090  65.8157966  -1.3420803  65.8157966  -1.3420803
       153  0.003863055 0.0001949859   0.04322759 0.0009159049   0.04322759 0.0009159049 1.072692e-05    671.7241    644.2502  65.8153282  -1.3423154  65.8153282  -1.3423154
       154    0.0424179 0.0006085914   0.09167925  0.002014516   0.09795953  0.002557105 1.134836e-05    648.9734    654.0948  65.8155810  -1.3422060  65.8155810  -1.3422060
       155 0.0006975351 8.578235e-05  0.006899091 0.0003788046  0.006899091 0.0003788046 4.451325e-06    275.1718    660.8266  65.8197355  -1.3421312  65.8197355  -1.3421312
       156  0.001765354 0.0001310347  0.006366121 0.0004606227  0.006366121 0.0004606227 4.828881e-06    351.7649    659.6415  65.8188843  -1.3421444  65.8188843  -1.3421444
       157   0.00130331 0.0001161499   0.01308261  0.000527637   0.01308261  0.000527637 -6.00949e-06     29.0861    656.1801  65.8224706  -1.3421829  65.8224706  -1.3421829
       158  0.003248301 0.0001715647   0.01311088 0.0006215522  0.008220743 0.0007443237 1.232106e-05    613.3616    647.4653  65.8159768  -1.3422797  65.8159768  -1.3422797
       159    0.1159953  0.001008931    0.3275346  0.004175818    0.2709945  0.004257525  9.67592e-06    591.7359    634.8075  65.8162172  -1.3424203  65.8162172  -1.3424203
       160  0.003560661 0.0001853111   0.03070114 0.0007151388   0.03070114 0.0007151388 1.080798e-05    669.0956    637.9265  65.8153574  -1.3423857  65.8153574  -1.3423857
       161  0.002836633 0.0001679524   0.01122139 0.0005537227   0.01122139 0.0005537227 1.846623e-07    518.6838    637.6912  65.8170291  -1.3423883  65.8170291  -1.3423883
       162   0.06244903 0.0007159958    0.2714981  0.003346245    0.1272893  0.002854822 1.015428e-05    661.5171    605.3568  65.8154416  -1.3427476  65.8154416  -1.3427476
       163  0.001073247 0.0001050615  0.007780141 0.0004606227  0.007780141 0.0004606227 -2.215445e-06    494.7508    627.0026  65.8172951  -1.3425071  65.8172951  -1.3425071
       164   0.02763582 0.0003303827   0.02073394 0.0004659174   0.03260272 0.0007764256 1.207788e-05    622.2668    627.9041  65.8158779  -1.3424970  65.8158779  -1.3424970
       165  0.003396497 0.0001785702   0.02011006  0.000743722   0.02011006  0.000743722 5.242221e-07    983.5583    615.9309  65.8118624  -1.3426301  65.8118624  -1.3426301
       166     0.075411 0.0007885447    0.1996005  0.002963529    0.1549463  0.003155803 8.509794e-06    602.7253    595.5903  65.8160951  -1.3428561  65.8160951  -1.3428561
       167 0.0004736074 7.004099e-05  0.003753331 0.0003171241  0.003753331 0.0003171241 4.268251e-06    213.0058    615.2458  65.8204265  -1.3426377  65.8204265  -1.3426377
       168  0.003590737 0.0001819718   0.01355948 0.0006542369   0.01355948 0.0006542369 -3.314343e-06    732.2979    612.0161  65.8146550  -1.3426736  65.8146550  -1.3426736
       169  0.001639813 0.0001310347  0.009285179 0.0004579524  0.009285179 0.0004579524 -6.602905e-06     44.2180    613.3400  65.8223024  -1.3426589  65.8223024  -1.3426589
       170  0.002420071 0.0001566164   0.01224809 0.0006165995   0.01224809 0.0006165995 -4.198924e-06    486.2486    609.6254  65.8173896  -1.3427001  65.8173896  -1.3427001
       171   0.07241043 0.0006607655   0.08033368  0.001538911    0.1036971  0.002064041 1.171657e-05    627.1005    607.7664  65.8158241  -1.3427208  65.8158241  -1.3427208
       172    0.0019697 0.0001356338  0.009258775 0.0005001927  0.009258775 0.0005001927 -4.804166e-06    476.6345    608.6152  65.8174964  -1.3427114  65.8174964  -1.3427114
       173 0.0006478474 7.830821e-05  0.004271567 0.0003209682  0.004271567 0.0003209682 -5.247662e-06    779.5934    608.2001  65.8141293  -1.3427160  65.8141293  -1.3427160
       174 0.0005934699 7.830821e-05  0.005128145 0.0003377254  0.005128145 0.0003377254 -3.371091e-07    386.7899    608.3963  65.8184950  -1.3427138  65.8184950  -1.3427138
       175  0.001235475 0.0001107445  0.007738846 0.0004750412  0.007738846 0.0004750412 -5.541959e-06    797.7949    605.5266  65.8139270  -1.3427457  65.8139270  -1.3427457
       176  0.002352706 0.0001485794   0.01418189 0.0005481575   0.01418189 0.0005481575 -1.254504e-06    492.6474    645.2173  65.8173185  -1.3423047  65.8173185  -1.3423047
       177     0.011045 0.0003247667   0.04188383   0.00121264   0.04188383   0.00121264 2.315353e-06    704.8146    599.6241  65.8149604  -1.3428113  65.8149604  -1.3428113
       178 0.0007347285 8.578235e-05  0.005678862 0.0003536897  0.005678862 0.0003536897 -3.350994e-07    382.9996    600.5031  65.8185371  -1.3428015  65.8185371  -1.3428015
       179 0.0005783403 7.830821e-05  0.006520988 0.0003519517  0.006520988 0.0003519517 4.876675e-09   1200.7996    601.3919  65.8094480  -1.3427916  65.8094480  -1.3427916
       180  0.001660335 0.0001262682  0.006941143 0.0004525646  0.006941143 0.0004525646 2.532239e-06    562.3618    596.3610  65.8165437  -1.3428475  65.8165437  -1.3428475
       181  0.001595793 0.0001213146  0.007829545 0.0004552665  0.007829545 0.0004552665 -3.548893e-06    851.8135    650.1041  65.8133266  -1.3422504  65.8133266  -1.3422504
       182  0.002011648 0.0001485794   0.01693697 0.0006635437   0.01693697 0.0006635437 3.043757e-06   1146.3153    588.9045  65.8100535  -1.3429304  65.8100535  -1.3429304
       183 0.0008187228 9.265553e-05  0.008978396 0.0004217026  0.008978396 0.0004217026 -4.662735e-06    814.7007    644.4443  65.8137391  -1.3423133  65.8137391  -1.3423133
       184  0.002505411 0.0001443932  0.006289867 0.0004498464  0.006289867 0.0004498464  1.21049e-05    620.6383    644.1868  65.8158960  -1.3423161  65.8158960  -1.3423161
       185 0.0006245317 7.830821e-05  0.004955017 0.0003285214  0.004955017 0.0003285214 -4.77853e-07    500.7893    650.4013  65.8172280  -1.3422471  65.8172280  -1.3422471
       186  0.001899553 0.0001356338   0.01079543  0.000527637   0.01079543  0.000527637 3.165583e-06   1132.6041    585.3881  65.8102059  -1.3429694  65.8102059  -1.3429694
       187 0.0009266746 9.905293e-05   0.01049286 0.0004512076   0.01049286 0.0004512076 -5.347334e-06     43.9861    650.5018  65.8223050  -1.3422459  65.8223050  -1.3422459
       188  0.003492396 0.0001715647  0.009501356 0.0005796924  0.009501356 0.0005796924  4.13181e-06    636.9288    574.8561  65.8157149  -1.3430865  65.8157149  -1.3430865
       189  0.001115941 0.0001050615   0.00525566 0.0003962117   0.00525566 0.0003962117 -3.39554e-06    865.6473    574.8915  65.8131729  -1.3430861  65.8131729  -1.3430861
       190  0.004876124 0.0002214891   0.02166215 0.0008942236   0.02166215 0.0008942236 -1.676419e-06    580.7744    561.3628  65.8163390  -1.3432364  65.8163390  -1.3432364
       191  0.005198907 0.0002269588  0.009867249 0.0006293954  0.009867249 0.0006293954 1.690184e-07    577.6943    572.1070  65.8163733  -1.3431170  65.8163733  -1.3431170
       192  0.001611346 0.0001213146  0.006765345 0.0004498464  0.006765345 0.0004498464 3.173423e-06    643.9288    571.1548  65.8156371  -1.3431276  65.8156371  -1.3431276
       193  0.003959869 0.0002011774   0.02294457 0.0008838774   0.02294457 0.0008838774 -4.026209e-06    384.6712    558.3970  65.8185185  -1.3432693  65.8185185  -1.3432693
       194 0.0007395437 8.578235e-05  0.006550441 0.0003672981  0.006550441 0.0003672981 4.841735e-06    255.1781    559.8265  65.8199578  -1.3432535  65.8199578  -1.3432535
       195  0.007924763 0.0002573471    0.0130658 0.0004443603    0.0130658 0.0004443603 -1.163541e-06    616.4008    551.4227  65.8159431  -1.3433468  65.8159431  -1.3433468
       196  0.007627959 0.0002573471   0.02041612 0.0008383003   0.02041612 0.0008383003 -3.254445e-06    753.5348    552.2658  65.8144189  -1.3433375  65.8144189  -1.3433375
       197   0.04001597 0.0005722396     0.215002  0.002804702   0.08110525  0.002275597 1.102413e-05    661.4061    621.6812  65.8154429  -1.3425662  65.8154429  -1.3425662
       198 0.0009084021 9.265553e-05  0.004154819  0.000350205  0.004154819  0.000350205 -6.752166e-06    490.2821    553.4197  65.8173448  -1.3433246  65.8173448  -1.3433246
       199  0.005621508 0.0002242406   0.02038957 0.0008016559   0.02038957 0.0008016559 -1.513783e-06    605.4069    551.0885  65.8160652  -1.3433505  65.8160652  -1.3433505
       200 0.0007050369 8.578235e-05  0.006004004 0.0003656247  0.006004004 0.0003656247 4.842337e-06    251.1605    551.8354  65.8200024  -1.3433422  65.8200024  -1.3433422
       201  0.003188598 0.0001785702   0.01555323 0.0005828572   0.01555323 0.0005828572 -2.541509e-06    863.1752    544.9995  65.8132004  -1.3434182  65.8132004  -1.3434182
       202  0.001157227 0.0001050615  0.006426511 0.0004053916  0.006426511 0.0004053916 -3.349375e-06    760.3200    548.1299  65.8143435  -1.3433834  65.8143435  -1.3433834
       203   0.02192453 0.0002930025   0.01831671 0.0004890346   0.02580277 0.0006850226 1.188875e-05    629.2159    624.6564  65.8158006  -1.3425331  65.8158006  -1.3425331
       204  0.002122176 0.0001443932  0.008196771 0.0004645994  0.008196771 0.0004645994 -3.293974e-06    756.6888    541.4980  65.8143839  -1.3434571  65.8143839  -1.3434571
       205 0.0004211829 6.065728e-05  0.001941457 0.0002269588  0.001941457 0.0002269588 -3.401111e-06    620.3140    540.3354  65.8158996  -1.3434700  65.8158996  -1.3434700
       206 0.0009268206 9.265553e-05  0.005726998 0.0003788046  0.005726998 0.0003788046 -3.583045e-06    701.1554    534.5521  65.8150011  -1.3435343  65.8150011  -1.3435343
       207  0.001681283 0.0001262682  0.005002676 0.0004084057  0.005002676 0.0004084057 -3.465993e-06    753.1620    532.4842  65.8144231  -1.3435573  65.8144231  -1.3435573
       208  0.009140912  0.000259719    0.0159708 0.0005625125    0.0159708 0.0005625125 -8.044218e-06    592.5972    514.6151  65.8162076  -1.3437558  65.8162076  -1.3437558
       209  0.002376329 0.0001485794   0.00961293  0.000571167   0.00961293  0.000571167 -7.05402e-06    702.3954    503.0510  65.8149873  -1.3438843  65.8149873  -1.3438843
       210  0.001670803 0.0001262682   0.01029736 0.0005111073   0.01029736 0.0005111073 -9.900697e-06    598.5829    502.2122  65.8161411  -1.3438936  65.8161411  -1.3438936
       211  0.004382663 0.0001918152   0.01289485  0.000622538   0.01289485  0.000622538 -1.016597e-05    632.1956    500.3071  65.8157675  -1.3439148  65.8157675  -1.3439148
       212  0.000608716 7.830821e-05   0.00438877 0.0003285214   0.00438877 0.0003285214 -1.991894e-06    954.2122    501.3940  65.8121886  -1.3439027  65.8121886  -1.3439027
       213  0.003115146 0.0001751025   0.01203707 0.0005402699   0.01203707 0.0005402699 -9.531478e-06    549.7175    501.1406  65.8166842  -1.3439055  65.8166842  -1.3439055
       214 0.0007070161 8.578235e-05  0.006147644 0.0003672981  0.006147644 0.0003672981 -5.572273e-07   1050.4998    500.0237  65.8111184  -1.3439179  65.8111184  -1.3439179
       215 0.0008852642 9.265553e-05  0.005766226 0.0003788046  0.005766226 0.0003788046 1.826885e-06   1150.7035    501.5753  65.8100047  -1.3439007  65.8100047  -1.3439007
       216  0.001155941 0.0001107445  0.009173162 0.0004877791  0.009173162 0.0004877791 -1.860806e-07   1065.5059    494.1944  65.8109516  -1.3439827  65.8109516  -1.3439827
       217  0.002221976  0.000140082  0.005181647 0.0003977564  0.005181647 0.0003977564 -1.152373e-05    631.5071    491.9735  65.8157752  -1.3440074  65.8157752  -1.3440074
       218  0.002090984  0.000140082  0.005885408 0.0004402008  0.005885408 0.0004402008 -1.033016e-05    557.9570    490.1241  65.8165926  -1.3440279  65.8165926  -1.3440279
       219 0.0009272554 9.265553e-05   0.00272732 0.0002866551   0.00272732 0.0002866551 -1.19726e-05    639.0247    488.7101  65.8156916  -1.3440436  65.8156916  -1.3440436
       220   0.00123807 0.0001050615  0.004920449  0.000372273  0.004920449  0.000372273 -9.342571e-06    696.0156    488.0081  65.8150582  -1.3440514  65.8150582  -1.3440514
       221  0.003483989 0.0001853111   0.01842575 0.0006772642   0.01842575 0.0006772642 -9.624605e-06    700.7346    478.8627  65.8150058  -1.3441531  65.8150058  -1.3441531
       222 0.0006968729 8.578235e-05  0.004952722 0.0003672981  0.004952722 0.0003672981 -5.919884e-06    444.6585    479.1739  65.8178518  -1.3441496  65.8178518  -1.3441496
       223 0.0003641464 6.065728e-05  0.003387456 0.0002451435  0.003387456 0.0002451435 -1.667151e-06   1055.3234    477.3307  65.8110648  -1.3441701  65.8110648  -1.3441701
       224  0.004975597 0.0002187029   0.03798147 0.0009654485   0.03798147 0.0009654485 -5.404285e-07   1051.6696    460.3186  65.8111054  -1.3443591  65.8111054  -1.3443591
       225  0.001451702 0.0001107445  0.003597189 0.0003209682  0.003597189 0.0003209682 -1.426979e-05    628.9812    458.4980  65.8158032  -1.3443793  65.8158032  -1.3443793
       226 0.0007885718 9.265553e-05   0.01040632 0.0004303391   0.01040632 0.0004303391 2.860168e-07   1151.2899    456.9937  65.8099982  -1.3443960  65.8099982  -1.3443960
       227 0.0004861198 7.004099e-05  0.003075357 0.0003092927  0.003075357 0.0003092927 -1.42585e-05    636.7515    456.9901  65.8157169  -1.3443961  65.8157169  -1.3443961
       228 0.0008973745 9.265553e-05  0.006007888 0.0003788046  0.006007888 0.0003788046 -7.602318e-06   1208.2700    455.4343  65.8093649  -1.3444134  65.8093649  -1.3444134
       229  0.002944717 0.0001715647   0.01388309 0.0006745424   0.01388309 0.0006745424 6.204584e-06    180.9036    452.9539  65.8207833  -1.3444409  65.8207833  -1.3444409
       230  0.002245172 0.0001485794   0.01540711 0.0005559332   0.01540711 0.0005559332 2.921699e-08   1051.0205    451.4830  65.8111126  -1.3444573  65.8111126  -1.3444573
       231 0.0007188249 8.578235e-05  0.005581625 0.0003672981  0.005581625 0.0003672981 -6.007523e-06    351.8138    451.8282  65.8188837  -1.3444534  65.8188837  -1.3444534
       232  0.001264843 0.0001107445   0.00624427 0.0004345929   0.00624427 0.0004345929 -3.730767e-06    802.5263    450.7934  65.8138744  -1.3444649  65.8138744  -1.3444649
       233 0.0008601827 9.265553e-05  0.005386269   0.00038042  0.005386269   0.00038042  -1.4426e-05    648.7068    451.0030  65.8155840  -1.3444626  65.8155840  -1.3444626
       234  0.003256002 0.0001853111   0.01543783 0.0007846467   0.01543783 0.0007846467 -1.402336e-05    603.8222    449.7092  65.8160829  -1.3444770  65.8160829  -1.3444770
       235 0.0009767468 9.905293e-05  0.007017502  0.000424601  0.007017502  0.000424601 -8.433463e-06    564.5046    441.8866  65.8165198  -1.3445639  65.8165198  -1.3445639
       236  0.002794263 0.0001604841   0.01665157 0.0006532989   0.01665157 0.0006532989 -3.785787e-06    890.9681    436.9707  65.8128915  -1.3446185  65.8128915  -1.3446185
       237 0.0006807158 7.830821e-05  0.003058698 0.0003053016  0.003058698 0.0003053016 -1.57108e-05    631.3696    419.1849  65.8157767  -1.3448161  65.8157767  -1.3448161
       238 0.0004581862 7.004099e-05  0.004738681 0.0003092927  0.004738681 0.0003092927 -6.337155e-06    324.4960    413.4959  65.8191873  -1.3448793  65.8191873  -1.3448793
       239  0.001149152 0.0001107445   0.01122214 0.0004877791   0.01122214 0.0004877791 5.190785e-06    186.0980    406.8024  65.8207255  -1.3449537  65.8207255  -1.3449537
       240  0.000729046 8.578235e-05  0.005543565 0.0003656247  0.005543565 0.0003656247 -2.577627e-06    270.1667    403.8393  65.8197912  -1.3449866  65.8197912  -1.3449866
       241  0.004438115 0.0002130214    0.0288696 0.0008434053    0.0288696 0.0008434053 -1.34789e-06   1008.6629    400.8311  65.8115834  -1.3450201  65.8115834  -1.3450201
       242  0.001124784 0.0001050615  0.009129048 0.0004579524  0.009129048 0.0004579524 -7.254769e-06    349.4310    400.6562  65.8189102  -1.3450220  65.8189102  -1.3450220
       243  0.002052532  0.000140082  0.005721293 0.0004402008  0.005721293 0.0004402008 -1.151625e-05    605.3637    395.1995  65.8160657  -1.3450826  65.8160657  -1.3450826
       244 0.0009954295 9.905293e-05  0.004799475  0.000394661  0.004799475  0.000394661 -2.80795e-06    800.3566    401.2569  65.8138985  -1.3450153  65.8138985  -1.3450153
       245  0.001392103 0.0001161499  0.006497105 0.0004552665  0.006497105 0.0004552665 1.187655e-07    518.5437    388.6562  65.8170307  -1.3451553  65.8170307  -1.3451553
       246  0.003950983 0.0001981058   0.01821923 0.0007624502   0.01821923 0.0007624502 -5.580039e-06    701.4689    355.4176  65.8149976  -1.3455247  65.8149976  -1.3455247
       247  0.003576592 0.0001853111   0.02217537  0.000850645   0.02217537  0.000850645 -5.199979e-06    748.5361    350.2645  65.8144745  -1.3455819  65.8144745  -1.3455819
       248   0.00222784 0.0001526508   0.02083171 0.0006763582   0.02083171 0.0006763582 -3.166881e-06    149.3660    351.4765  65.8211338  -1.3455685  65.8211338  -1.3455685
       249  0.001761756 0.0001356338   0.01350551  0.000589136   0.01350551  0.000589136 -6.421803e-06   1201.2451    349.8047  65.8094430  -1.3455870  65.8094430  -1.3455870
       250 0.0009322584 9.905293e-05  0.007099271 0.0004317617  0.007099271 0.0004317617 -3.371747e-06   1100.6241    350.7524  65.8105613  -1.3455765  65.8105613  -1.3455765
       251  0.003990588 0.0001949859   0.02057606 0.0007760024   0.02057606 0.0007760024 -2.832209e-06   1013.2936    348.4490  65.8115319  -1.3456021  65.8115319  -1.3456021
       252  0.004911756 0.0002242406   0.02706832 0.0007362638   0.02706832 0.0007362638 -7.365642e-06    860.2454    349.3095  65.8132329  -1.3455925  65.8132329  -1.3455925
       253 0.0006174943 7.830821e-05  0.004048572  0.000322873  0.004048572  0.000322873 -4.363253e-06    646.3878    343.7942  65.8156098  -1.3456538  65.8156098  -1.3456538
       254  0.002827035 0.0001604841   0.01450634 0.0006254861   0.01450634 0.0006254861 -4.440424e-06   1151.3923    351.7782  65.8099971  -1.3455651  65.8099971  -1.3455651
       255  0.003476196  0.000185311  0.009297545 0.0005526142  0.009297545 0.0005526142 -5.40052e-06    650.8508    353.0914  65.8155602  -1.3455505  65.8155602  -1.3455505
       256  0.000596559 7.830821e-05   0.00343917 0.0003303827   0.00343917 0.0003303827 2.083045e-06    538.0002    338.9908  65.8168144  -1.3457072  65.8168144  -1.3457072
       257 0.0005542396 7.830821e-05  0.006818075 0.0003588533  0.006818075 0.0003588533 1.949061e-06    519.6016    338.7999  65.8170189  -1.3457093  65.8170189  -1.3457093
       258 0.0003427576 6.065728e-05  0.004381377 0.0002866551  0.004381377 0.0002866551 -3.553333e-06    751.0000    318.9843  65.8144471  -1.3459295  65.8144471  -1.3459295
       259 0.0009590665 9.905293e-05  0.004339308 0.0003992951  0.004339308 0.0003992951 -2.393461e-06    712.2593    315.3847  65.8148777  -1.3459695  65.8148777  -1.3459695
       260  0.002115601 0.0001443932   0.01243192  0.000591214   0.01243192  0.000591214 -1.558631e-06   1004.1240    310.7718  65.8116338  -1.3460207  65.8116338  -1.3460207
       261  0.002579892 0.0001604841   0.01244409 0.0007185605   0.01244409 0.0007185605 2.852741e-06    555.3070    302.8457  65.8166221  -1.3461088  65.8166221  -1.3461088
       262   0.00161598 0.0001262682   0.00524868 0.0004345929   0.00524868 0.0004345929 9.147882e-07    597.0027    301.0232  65.8161587  -1.3461290  65.8161587  -1.3461290
       263 0.0004667854 7.004099e-05  0.004153183 0.0003053016  0.004153183 0.0003053016 2.146564e-06    498.5010    302.4927  65.8172534  -1.3461127  65.8172534  -1.3461127
       264 0.0006926503 8.578235e-05  0.008078203   0.00038042  0.008078203   0.00038042 -2.500459e-06    900.4988    301.5012  65.8127855  -1.3461237  65.8127855  -1.3461237
       265 0.0007108723 8.578235e-05  0.005139169 0.0003536897  0.005139169 0.0003536897 -4.944454e-06   1173.0012    296.1709  65.8097569  -1.3461830  65.8097569  -1.3461830
       266 0.0004673323 7.004099e-05  0.004842835 0.0003092927  0.004842835 0.0003092927 -2.091205e-06    897.5003    292.5018  65.8128189  -1.3462237  65.8128189  -1.3462237
       267  0.003218055 0.0001785702   0.01430999 0.0005447911   0.01430999 0.0005447911 2.323382e-06    549.5444    268.2713  65.8166861  -1.3464930  65.8166861  -1.3464930
       268  0.003431316 0.0001751025   0.01034038 0.0005311121  0.008374402 0.0007505053 3.985368e-06    631.9988    261.3788  65.8157697  -1.3465695  65.8157697  -1.3465695
       269  0.005225556 0.0002242406   0.01945133 0.0007278874   0.01945133 0.0007278874 -9.441997e-06    579.3107   1237.6195  65.8163553  -1.3357224  65.8163553  -1.3357224
       270  0.002149235 0.0001485794   0.01630321 0.0005592325   0.01630321 0.0005592325 -2.053778e-06    349.1429    252.4725  65.8189134  -1.3466685  65.8189134  -1.3466685
       271 0.0003529248 6.065728e-05  0.003961159  0.000257347  0.003961159  0.000257347 -4.937479e-07   1000.6662    251.6701  65.8116723  -1.3466774  65.8116723  -1.3466774
       272  0.001332418 0.0001161499   0.01093681 0.0004827243   0.01093681 0.0004827243 -1.069492e-06    450.3660    250.9134  65.8177884  -1.3466858  65.8177884  -1.3466858
       273  0.003257419 0.0001751025   0.01548476 0.0006699816   0.01548476 0.0006699816 -6.390951e-06     48.6831    250.4031  65.8222528  -1.3466915  65.8222528  -1.3466915
       274  0.001618164 0.0001262682   0.01323458 0.0005391337   0.01323458 0.0005391337 -6.05246e-07   1052.1683    246.4455  65.8110999  -1.3467355  65.8110999  -1.3467355
       275  0.002545769 0.0001566164  0.009238863 0.0004877791  0.009238863 0.0004877791 -6.753388e-06    442.5642   1203.6000  65.8178751  -1.3361004  65.8178751  -1.3361004
       276 0.0004536929 7.004099e-05  0.006374071 0.0003322336  0.006374071 0.0003322336 3.857121e-06    275.9964    238.2458  65.8197264  -1.3468266  65.8197264  -1.3468266
       277 0.0004871231 7.004099e-05   0.00422276 0.0003053016   0.00422276 0.0003053016 6.696947e-06    716.5132    237.4979  65.8148304  -1.3468349  65.8148304  -1.3468349
       278  0.001179655 0.0001107445  0.008074427 0.0004827243  0.008074427 0.0004827243 -1.440249e-05    626.2986   1241.1923  65.8158331  -1.3356827  65.8158331  -1.3356827
       279  0.004287644 0.0002042028   0.02162747 0.0007056435   0.02162747 0.0007056435 -3.433345e-06   1100.3499   1201.1917  65.8105644  -1.3361272  65.8105644  -1.3361272
       280  0.001269626 0.0001107445  0.005580808 0.0004187842  0.005580808 0.0004187842 1.485086e-06    500.3100   1200.3026  65.8172333  -1.3361371  65.8172333  -1.3361371
       281  0.001684826 0.0001262682  0.007437133 0.0004965013  0.007437133 0.0004965013 5.396832e-06    604.9933   1172.3107  65.8160698  -1.3364481  65.8160698  -1.3364481
       282 0.0003484608 6.065728e-05   0.00357224 0.0002500964   0.00357224 0.0002500964 -2.234402e-06    847.6683   1205.6641  65.8133727  -1.3360775  65.8133727  -1.3360775
       283  0.001396253 0.0001213146   0.01391088 0.0005733102   0.01391088 0.0005733102 -2.903038e-06     99.1837   1199.5022  65.8216915  -1.3361459  65.8216915  -1.3361459
       284  0.001830521  0.000140082   0.01394886 0.0006215522   0.01394886 0.0006215522 -1.050306e-07   1200.7588   1201.2407  65.8094484  -1.3361266  65.8094484  -1.3361266
       285 0.0003656994 6.065728e-05  0.003022604 0.0002426291  0.003022604 0.0002426291 -6.631897e-06    799.6724   1201.3412  65.8139062  -1.3361255  65.8139062  -1.3361255
       286 0.0006799211 8.578235e-05  0.004234806  0.000257347  0.004234806  0.000257347 4.829319e-06    992.6675   1096.3381  65.8117612  -1.3372922  65.8117612  -1.3372922
       287  0.005101291 0.0002214891   0.01803989 0.0005668563   0.01803989 0.0005668563 -2.470025e-06    602.9948   1206.7192  65.8160921  -1.3360658  65.8160921  -1.3360658
       288 0.0003518393 6.065728e-05  0.004320987  0.000257347  0.004320987  0.000257347 -8.322041e-06    245.3371   1198.3359  65.8200671  -1.3361589  65.8200671  -1.3361589
       289 0.0008005207 9.265553e-05  0.007725584 0.0004084057  0.007725584 0.0004084057  1.82939e-07   1090.4246   1137.1405  65.8106747  -1.3368389  65.8106747  -1.3368389
       290  0.003301363 0.0001715647  0.009830707 0.0005636016  0.009830707 0.0005636016 2.358752e-06    589.1671   1195.1906  65.8162457  -1.3361939  65.8162457  -1.3361939
       291  0.001384542 0.0001161499   0.01008647 0.0004827243   0.01008647 0.0004827243 -4.25369e-06    107.4428   1206.1752  65.8215997  -1.3360718  65.8215997  -1.3360718
       292  0.001828264 0.0001356338    0.0133206 0.0005668563    0.0133206 0.0005668563 7.317398e-07    638.4056   1137.6127  65.8156985  -1.3368336  65.8156985  -1.3368336
       293 0.0003331544 6.065728e-05  0.004583869  0.000257347  0.004583869  0.000257347 -4.750665e-06   1218.3320   1143.6663  65.8092531  -1.3367663  65.8092531  -1.3367663
       294 0.0003601185 6.065728e-05  0.004447062 0.0002866551  0.004447062 0.0002866551 -3.331522e-06    301.9876   1151.0000  65.8194375  -1.3366849  65.8194375  -1.3366849
       295 0.0007402127 8.578235e-05  0.005370432 0.0003449119  0.005370432 0.0003449119 -2.18763e-06    399.9943   1150.5024  65.8183482  -1.3366904  65.8183482  -1.3366904
       296 0.0009207588 9.905293e-05  0.007563013 0.0004217026  0.007563013 0.0004217026   4.4156e-06    893.8702   1145.1210  65.8128592  -1.3367502  65.8128592  -1.3367502
       297 0.0003410747 6.065728e-05  0.003871707  0.000257347  0.003871707  0.000257347 1.326374e-06    301.3290   1100.3278  65.8194448  -1.3372479  65.8194448  -1.3372479
       298   0.01519592 0.0003788046   0.03573253 0.0009609921   0.03573253 0.0009609921 7.737985e-06    552.0157   1154.2927  65.8166586  -1.3366483  65.8166586  -1.3366483
       299  0.001354918 0.0001161499   0.01469896 0.0005311121   0.01469896 0.0005311121 3.201367e-06    949.1749   1150.7395  65.8122446  -1.3366878  65.8122446  -1.3366878
       300  0.001813432 0.0001310347  0.009149524 0.0005123057  0.009149524 0.0005123057 6.106381e-06    593.3648   1164.0049  65.8161991  -1.3365404  65.8161991  -1.3365404
       301  0.001754032 0.0001262682  0.008823039 0.0004839929  0.008823039 0.0004839929 -8.825041e-06    688.0074   1156.7184  65.8151472  -1.3366213  65.8151472  -1.3366213
       302  0.001923827  0.000140082   0.01248381 0.0005818042   0.01248381 0.0005818042 -6.041752e-06    792.5070   1156.1693  65.8139858  -1.3366274  65.8139858  -1.3366274
       303  0.007402631 0.0002667082   0.03895875 0.0009571558   0.03895875 0.0009571558 -8.867182e-06    696.9229   1154.8438  65.8150481  -1.3366422  65.8150481  -1.3366422
       304  0.003289635 0.0001715647   0.01231832 0.0006014968   0.01231832 0.0006014968 6.269933e-06    598.8840   1155.1935  65.8161377  -1.3366383  65.8161377  -1.3366383
       305  0.001286595 0.0001107445  0.008689007 0.0004539175  0.008689007 0.0004539175 -3.244859e-06    651.5128   1151.2024  65.8155528  -1.3366826  65.8155528  -1.3366826
       306 0.0005850346 7.830821e-05  0.004797982 0.0003322336  0.004797982 0.0003322336 4.186731e-06    454.8047   1146.6010  65.8177391  -1.3367337  65.8177391  -1.3367337
       307  0.005970288 0.0002451435    0.0154509 0.0007815144    0.0154509 0.0007815144 1.919713e-06    846.5514   1141.1263  65.8133851  -1.3367946  65.8133851  -1.3367946
       308  0.001034834 0.0001050615  0.009723907 0.0004632777  0.009723907 0.0004632777 8.464513e-07    843.8962   1096.6720  65.8134146  -1.3372885  65.8134146  -1.3372885
       309  0.001540556 0.0001262682   0.01754332 0.0006004765   0.01754332 0.0006004765 4.982474e-06    945.7173   1096.3428  65.8122830  -1.3372922  65.8122830  -1.3372922
       310   0.00165863 0.0001310347   0.00714272 0.0003852255   0.00714272 0.0003852255 8.403158e-06    550.9907   1101.0051  65.8166700  -1.3372404  65.8166700  -1.3372404
       311  0.003436679 0.0001885911   0.01401552 0.0005775728   0.01401552 0.0005775728 7.925101e-06    538.4007   1085.9396  65.8168100  -1.3374078  65.8168100  -1.3374078
       312    0.0013649 0.0001161499  0.009427868 0.0004801769  0.009427868 0.0004801769 -6.023039e-06   1147.4563    994.6303  65.8100408  -1.3384223  65.8100408  -1.3384223
       313 0.0008174993 9.265553e-05  0.007064679 0.0004113977  0.007064679 0.0004113977 2.663483e-06   1050.8571   1100.4143  65.8111145  -1.3372469  65.8111145  -1.3372469
       314  0.004997849 0.0002130214   0.01556211  0.000695137   0.01556211  0.000695137 7.973376e-06    599.0658   1100.1567  65.8161357  -1.3372498  65.8161357  -1.3372498
       315  0.003023012 0.0001679524   0.01346643 0.0006293954   0.01346643 0.0006293954 -6.870469e-06    749.0855   1102.4360  65.8144684  -1.3372245  65.8144684  -1.3372245
       316 0.0006089346 7.830821e-05  0.004704138 0.0003303827  0.004704138 0.0003303827 8.057674e-06    507.3979   1103.2152  65.8171545  -1.3372158  65.8171545  -1.3372158
       317  0.002781807 0.0001679524   0.01776126 0.0005963776   0.01776126 0.0005963776 4.986455e-06    939.5697   1087.2532  65.8123513  -1.3373932  65.8123513  -1.3373932
       318 0.0005611216 7.830821e-05  0.006494014 0.0003588533  0.006494014 0.0003588533 4.702821e-06    900.1988   1100.3977  65.8127889  -1.3372471  65.8127889  -1.3372471
       319  0.003222725 0.0001751025   0.02076141 0.0007134218   0.02076141 0.0007134218  1.18686e-06    652.6341   1101.6300  65.8155404  -1.3372334  65.8155404  -1.3372334
       320 0.0004573236 7.004099e-05   0.00537254 0.0003132329   0.00537254 0.0003132329 -2.93624e-06    392.4986   1063.5065  65.8184315  -1.3376570  65.8184315  -1.3376570
       321  0.001868706 0.0001356338   0.01084368 0.0005379951   0.01084368 0.0005379951 -6.576879e-06   1161.7908    997.2658  65.8098815  -1.3383930  65.8098815  -1.3383930
       322  0.001577461 0.0001310347   0.01469842 0.0005818042   0.01469842 0.0005818042 4.740718e-07    438.2170   1072.3456  65.8179234  -1.3375588  65.8179234  -1.3375588
       323 0.0008813194 9.265553e-05  0.004715757 0.0003739166  0.004715757 0.0003739166 2.454044e-06    692.7189   1029.9949  65.8150949  -1.3380294  65.8150949  -1.3380294
       324  0.001547156 0.0001213146   0.01296117 0.0005206171   0.01296117 0.0005206171 8.707264e-06    598.7598   1056.6825  65.8161391  -1.3377328  65.8161391  -1.3377328
       325 0.0008531227 9.265553e-05  0.006208196   0.00038042  0.006208196   0.00038042 -5.818238e-06    800.9963   1000.7201  65.8138914  -1.3383546  65.8138914  -1.3383546
       326  0.008628735 0.0002757517   0.01006211 0.0003588533   0.01006211 0.0003588533 8.906639e-06    608.1299   1057.5767  65.8160350  -1.3377229  65.8160350  -1.3377229
       327   0.00376446 0.0001949859   0.01464071 0.0008069926   0.01464071 0.0008069926 6.057124e-06    200.0872    999.6512  65.8205700  -1.3383665  65.8205700  -1.3383665
       328 0.0003663925 6.065728e-05  0.003033441 0.0002426291  0.003033441 0.0002426291 2.655162e-06   1051.3204   1001.3380  65.8111093  -1.3383478  65.8111093  -1.3383478
       329  0.004152677 0.0001918152  0.008568383 0.0005217937  0.008568383 0.0005217937 8.508664e-06    590.5109   1057.2559  65.8162308  -1.3377265  65.8162308  -1.3377265
       330  0.004652322 0.0002158808   0.02212864 0.0008294759   0.02212864 0.0008294759 3.650073e-06    899.0451   1050.6270  65.8128017  -1.3378001  65.8128017  -1.3378001
       331 0.0004626337 7.004099e-05  0.005296888 0.0003132329  0.005296888 0.0003132329 5.419429e-06    535.5035   1022.5018  65.8168422  -1.3381126  65.8168422  -1.3381126
       332  0.001045193 0.0001050615  0.008272729 0.0004471118  0.008272729 0.0004471118 1.003118e-06    902.8770    998.6667  65.8127591  -1.3383775  65.8127591  -1.3383775
       333 0.0007465784 8.578235e-05  0.004666893 0.0003395363  0.004666893 0.0003395363 1.949548e-06    499.5069   1000.4995  65.8172422  -1.3383571  65.8172422  -1.3383571
       334  0.001759559 0.0001310347   0.01283841 0.0005515034   0.01283841 0.0005515034 6.202206e-06    649.5099   1051.7476  65.8155751  -1.3377877  65.8155751  -1.3377877
       335 0.0009412696 9.905293e-05  0.009357464 0.0004360017  0.009357464 0.0004360017 7.596046e-06    556.1271   1055.8701  65.8166130  -1.3377419  65.8166130  -1.3377419
       336  0.002197083 0.0001443932    0.0126846 0.0005700924    0.0126846 0.0005700924 5.374298e-07   1100.8719   1049.5938  65.8105586  -1.3378116  65.8105586  -1.3378116
       337 0.0006755485 8.578235e-05  0.006818516   0.00038042  0.006818516   0.00038042 3.361732e-06    270.0004   1052.5049  65.8197930  -1.3377792  65.8197930  -1.3377792
       338  0.000810786 9.265553e-05  0.005438556 0.0003285214  0.005438556 0.0003285214 -9.036307e-07    401.2452   1001.0006  65.8183343  -1.3383515  65.8183343  -1.3383515
       339 0.0004574842 7.004099e-05  0.005775088 0.0003132329  0.005775088 0.0003132329 5.817386e-06    200.4982   1049.4930  65.8205655  -1.3378127  65.8205655  -1.3378127
       340  0.005431358 0.0002296448    0.0229766 0.0008949091    0.0229766 0.0008949091 5.981096e-06    621.5778   1000.6419  65.8158855  -1.3383555  65.8158855  -1.3383555
