#   1 NUMBER                 Running object number                                     
#   2 FLUX_ISO               Isophotal flux                                             [count]
#   3 FLUXERR_ISO            RMS error for isophotal flux                               [count]
#   4 FLUX_AUTO              Flux within a Kron-like elliptical aperture                [count]
#   5 FLUXERR_AUTO           RMS error for AUTO flux                                    [count]
#   6 FLUX_BEST              Best of FLUX_AUTO and FLUX_ISOCOR                          [count]
#   7 FLUXERR_BEST           RMS error for BEST flux                                    [count]
#   8 BACKGROUND             Background at centroid position                            [count]
#   9 X_IMAGE                Object position along x                                    [pixel]
#  10 Y_IMAGE                Object position along y                                    [pixel]
#  11 ALPHA_SKY              Right ascension of barycenter (native)                     [deg]
#  12 DELTA_SKY              Declination of barycenter (native)                         [deg]
#  13 ALPHA_J2000            Right ascension of barycenter (J2000)                      [deg]
#  14 DELTA_J2000            Declination of barycenter (J2000)                          [deg]
         1    0.2801271  0.001386618    0.4126813  0.003597887    0.4126813  0.003597887  8.07153e-06    590.8225    633.4999  65.8162273  -1.3424349  65.8162273  -1.3424349
         2     0.004014 0.0001817141   0.01540728 0.0005248632   0.01540728 0.0005248632 1.793217e-06    672.0009     17.2918  65.8153251  -1.3492816  65.8153251  -1.3492816
         3 0.0004171029 6.143059e-05  0.003533831 0.0002398941  0.003533831 0.0002398941 -1.151215e-06    345.5007      4.0026  65.8189539  -1.3494293  65.8189539  -1.3494293
         4 0.0009198118 9.214588e-05  0.008994841  0.000360823  0.008994841  0.000360823 -2.522152e-06     96.4347      3.3314  65.8217221  -1.3494367  65.8217221  -1.3494367
         5  0.003331139 0.0001682346   0.01741835  0.000679912   0.01741835  0.000679912 -8.164277e-06    608.3823     40.5887  65.8160322  -1.3490228  65.8160322  -1.3490228
         6 0.0008053756 8.687597e-05   0.00472816  0.000274726   0.00472816  0.000274726 -2.619263e-06    818.4991     45.5009  65.8136969  -1.3489682  65.8136969  -1.3489682
         7  0.003516895 0.0001625301  0.007054158 0.0002897675  0.007054158 0.0002897675 2.176141e-06    661.7354     56.1847  65.8154392  -1.3488495  65.8154392  -1.3488495
         8  0.001384507 0.0001107456  0.006695262 0.0003873051  0.006695262 0.0003873051 -4.833852e-06   1145.7452     43.3780  65.8100598  -1.3489918  65.8100598  -1.3489918
         9  0.002567557 0.0001504736   0.01263645 0.0005963831   0.01263645 0.0005963831 -2.074464e-06   1060.8328     58.9534  65.8110036  -1.3488187  65.8110036  -1.3488187
        10  0.002315924 0.0001407552  0.007050286 0.0004503746  0.007050286 0.0004503746 -8.864145e-06    549.0153     62.8369  65.8166920  -1.3487756  65.8166920  -1.3487756
        11 0.0003088793 5.320045e-05  0.002446343 0.0002128018  0.002446343 0.0002128018 -3.281006e-06    896.6666     49.6654  65.8128281  -1.3489219  65.8128281  -1.3489219
        12    0.0015503 0.0001189598  0.008783947 0.0004267105  0.008783947 0.0004267105 -1.208976e-07    802.0063     76.4834  65.8138802  -1.3486239  65.8138802  -1.3486239
        13 0.0005930037  7.52368e-05  0.007663936 0.0003336535  0.007663936 0.0003336535 3.674602e-06    734.5032     52.4962  65.8146305  -1.3488905  65.8146305  -1.3488905
        14 0.0007285412 8.126503e-05  0.005080471 0.0003378682  0.005080471 0.0003378682 3.865245e-06    704.2625     55.5621  65.8149666  -1.3488564  65.8149666  -1.3488564
        15  0.002684238 0.0001535765    0.0144336 0.0005630206    0.0144336 0.0005630206 -3.632051e-06    608.9987     71.8626  65.8160253  -1.3486753  65.8160253  -1.3486753
        16  0.002525224  0.000137363  0.006886367 0.0003811668  0.006886367 0.0003811668 1.161235e-06    644.4918     74.5288  65.8156309  -1.3486457  65.8156309  -1.3486457
        17  0.005412058 0.0001990579   0.01232437 0.0005916184   0.01232437 0.0005916184 3.428712e-06    656.7892     84.2499  65.8154942  -1.3485376  65.8154942  -1.3485376
        18 0.0004206926 6.143059e-05  0.003704431 0.0002677697  0.003704431 0.0002677697 -2.350552e-06    910.5013     69.4995  65.8126744  -1.3487015  65.8126744  -1.3487015
        19  0.005870497 0.0002150071   0.01348946 0.0006257182   0.01348946 0.0006257182 -7.472534e-06    554.7255     98.2424  65.8166285  -1.3483822  65.8166285  -1.3483822
        20  0.003696753 0.0001790994   0.01995712 0.0007091176   0.01995712 0.0007091176 -9.473436e-07    614.8658     86.4544  65.8159601  -1.3485131  65.8159601  -1.3485131
        21  0.001752764 0.0001189598  0.007601925 0.0004397761  0.007601925 0.0004397761 2.260639e-06    647.6178     81.9356  65.8155961  -1.3485634  65.8155961  -1.3485634
        22 0.0003150669 5.320045e-05   0.00397602 0.0002532848   0.00397602 0.0002532848 4.961441e-06    735.0000     79.0177  65.8146249  -1.3485958  65.8146249  -1.3485958
        23  0.004954759 0.0001966738   0.01223024 0.0005971736   0.01223024 0.0005971736 -7.595343e-06    550.6527    107.4205  65.8166738  -1.3482802  65.8166738  -1.3482802
        24   0.00135569 0.0001064009  0.007908968 0.0004343799  0.007908968 0.0004343799 3.542237e-06    642.4888    107.4726  65.8156531  -1.3482796  65.8156531  -1.3482796
        25 0.0008879583 8.687597e-05  0.008175306 0.0003711343  0.008175306 0.0003711343 -9.257774e-06     10.5154    104.5002  65.8226770  -1.3483126  65.8226770  -1.3483126
        26 0.0007124842 8.126503e-05   0.00597359 0.0003378682   0.00597359 0.0003378682 -4.857683e-07    964.9969    109.0020  65.8120687  -1.3482626  65.8120687  -1.3482626
        27 0.0009502877 9.214588e-05  0.004545397 0.0003685835  0.004545397 0.0003685835 1.891796e-06    328.6694    114.1067  65.8191410  -1.3482059  65.8191410  -1.3482059
        28  0.002185254 0.0001338849  0.006935349  0.000448275  0.006935349  0.000448275 -4.126122e-06    568.5552    128.7139  65.8164748  -1.3480436  65.8164748  -1.3480436
        29 0.0004091091 6.143059e-05  0.004813233 0.0002712701  0.004813233 0.0002712701 1.411602e-06    615.0023    117.5010  65.8159586  -1.3481682  65.8159586  -1.3481682
        30  0.003121246 0.0001596013  0.008701563 0.0005148822  0.008701563 0.0005148822 -4.84595e-06    407.1625    138.3673  65.8182686  -1.3479363  65.8182686  -1.3479363
        31 0.0002964668 5.320045e-05  0.004002112 0.0002257104  0.004002112 0.0002257104 2.866152e-06    245.3346    123.6728  65.8200672  -1.3480996  65.8200672  -1.3480996
        32  0.001603361 0.0001189598  0.007590503 0.0004648067  0.007590503 0.0004648067 -5.056861e-06    561.2753    132.2258  65.8165557  -1.3480046  65.8165557  -1.3480046
        33 0.0004259578 6.143059e-05  0.004109742 0.0002781388  0.004109742 0.0002781388 7.872852e-06    710.2393    134.9955  65.8149001  -1.3479738  65.8149001  -1.3479738
        34 0.0007431777 8.126503e-05  0.004155828 0.0003293848  0.004155828 0.0003293848 -1.516912e-07    596.1477    138.2967  65.8161682  -1.3479371  65.8161682  -1.3479371
        35 0.0005629059 6.868149e-05   0.00196224 0.0002514155   0.00196224 0.0002514155 -1.548653e-06    870.6014    139.2044  65.8131178  -1.3479270  65.8131178  -1.3479270
        36  0.000316081 5.320045e-05   0.00241594 0.0002128018   0.00241594 0.0002128018 -1.025595e-06    851.3318    138.6789  65.8133320  -1.3479329  65.8133320  -1.3479329
        37 0.0007038095 8.126503e-05  0.005193156  0.000274726  0.005193156  0.000274726 -6.314445e-06    519.4979    148.5015  65.8170201  -1.3478237  65.8170201  -1.3478237
        38  0.007281763 0.0002398941   0.01297349 0.0006977174   0.01297349 0.0006977174 1.021423e-06    597.2267    168.2420  65.8161562  -1.3476044  65.8161562  -1.3476044
        39  0.004100196 0.0001817141   0.01719856 0.0007236043   0.01719856 0.0007236043 -6.022553e-06    438.8456    168.7815  65.8179164  -1.3475984  65.8179164  -1.3475984
        40 0.0008284579 8.687597e-05  0.007488332 0.0003885211  0.007488332 0.0003885211 9.239524e-06    703.9916    164.4953  65.8149696  -1.3476460  65.8149696  -1.3476460
        41 0.0008347117 8.687597e-05  0.007668054 0.0003799272  0.007668054 0.0003799272 -1.328537e-06    133.8705    162.1228  65.8213060  -1.3476724  65.8213060  -1.3476724
        42 0.0003032508 5.320045e-05  0.003832717 0.0002257104  0.003832717 0.0002257104 -1.378074e-06   1072.6722    159.6662  65.8108720  -1.3476997  65.8108720  -1.3476997
        43 0.0004180065 6.143059e-05  0.004271943 0.0002695256  0.004271943 0.0002695256 4.095825e-06    299.4965    159.4927  65.8194652  -1.3477016  65.8194652  -1.3477016
        44 0.0009396103 9.214588e-05  0.005728127 0.0003824023  0.005728127 0.0003824023 -5.969038e-06    460.1212    168.4605  65.8176800  -1.3476020  65.8176800  -1.3476020
        45 0.0003105383 5.320045e-05  0.002634534 0.0002128018  0.002634534 0.0002128018 -2.780689e-07   1015.3264    167.3422  65.8115093  -1.3476144  65.8115093  -1.3476144
        46  0.001011831 9.214588e-05  0.004658567 0.0003406491  0.004658567 0.0003406491 -6.070337e-06    421.9984    170.9973  65.8181037  -1.3475738  65.8181037  -1.3475738
        47  0.008106943  0.000264223    0.0334099 0.0009163253    0.0334099 0.0009163253 7.731244e-06    691.1760    192.3490  65.8151120  -1.3473365  65.8151120  -1.3473365
        48  0.004620396 0.0001966738   0.02038689 0.0005995386   0.02038689 0.0005995386 -3.173822e-06   1159.1224    178.9252  65.8099112  -1.3474857  65.8099112  -1.3474857
        49  0.003802477 0.0001710155   0.01182824 0.0006018944   0.01182824 0.0006018944 6.884113e-06    661.6234    195.7332  65.8154405  -1.3472989  65.8154405  -1.3472989
        50  0.000393134 6.143059e-05   0.00555667  0.000274726   0.00555667  0.000274726 -2.056499e-06   1216.0006    177.5035  65.8092790  -1.3475015  65.8092790  -1.3475015
        51 0.0005369008 6.868149e-05  0.004658135 0.0002913909  0.004658135 0.0002913909 -2.510787e-07   1012.4030    181.7872  65.8115418  -1.3474539  65.8115418  -1.3474539
        52  0.001661283 0.0001149261  0.004193326 0.0003634283  0.004193326 0.0003634283 5.400365e-06    642.9273    193.2920  65.8156482  -1.3473261  65.8156482  -1.3473261
        53 0.0003055371 5.320045e-05  0.003296838 0.0002437951  0.003296838 0.0002437951 -7.514183e-06      7.9872    183.0000  65.8227051  -1.3474404  65.8227051  -1.3474404
        54  0.001234065 0.0001064009   0.01135627 0.0004817506   0.01135627 0.0004817506 3.306136e-06    335.1694    194.4339  65.8190687  -1.3473134  65.8190687  -1.3473134
        55  0.003362903 0.0001737519   0.01362789 0.0005425403   0.01362789 0.0005425403 -2.455721e-06   1153.5741    191.6350  65.8099728  -1.3473445  65.8099728  -1.3473445
        56  0.002029125  0.000130314   0.01013491 0.0004971705   0.01013491 0.0004971705 7.171563e-06    706.9308    196.3482  65.8149369  -1.3472921  65.8149369  -1.3472921
        57 0.0004074156 6.143059e-05  0.004503483  0.000274726  0.004503483  0.000274726 5.980095e-07    932.4980    193.0049  65.8124299  -1.3473292  65.8124299  -1.3473292
        58 0.0009680488 9.214588e-05  0.005967882 0.0003909419  0.005967882 0.0003909419 2.026816e-06    603.2311    203.1004  65.8160894  -1.3472171  65.8160894  -1.3472171
        59 0.0006681422  7.52368e-05   0.00291822  0.000288135   0.00291822  0.000288135 4.043905e-06    630.1792    203.1868  65.8157899  -1.3472161  65.8157899  -1.3472161
        60 0.0006448873  7.52368e-05   0.00246599  0.000288135   0.00246599  0.000288135 -4.647349e-07    566.1651    204.1693  65.8165014  -1.3472052  65.8165014  -1.3472052
        61  0.002039433  0.000130314  0.009389608 0.0005018921  0.009389608 0.0005018921 4.766477e-06    648.8643    220.3251  65.8155823  -1.3470257  65.8155823  -1.3470257
        62 0.0003998541 6.143059e-05  0.004976682  0.000274726  0.004976682  0.000274726 3.063954e-06    344.5016    211.4983  65.8189650  -1.3471238  65.8189650  -1.3471238
        63   0.00256176 0.0001473054  0.007836877  0.000413232  0.007836877  0.000413232 4.235625e-06    642.9162    225.3568  65.8156484  -1.3469698  65.8156484  -1.3469698
        64  0.009238997 0.0002660023   0.01812891 0.0007077859   0.01812891 0.0007077859 2.757404e-06    630.3526    252.1422  65.8157880  -1.3466722  65.8157880  -1.3466722
        65  0.002505856 0.0001473054   0.01120961 0.0005503097   0.01120961 0.0005503097  -3.7673e-06    450.3180    241.8173  65.8177889  -1.3467869  65.8177889  -1.3467869
        66  0.001137239 0.0001018711  0.005892592 0.0003378682  0.005892592 0.0003378682 -1.432961e-07   1054.9984    229.9989  65.8110684  -1.3469182  65.8110684  -1.3469182
        67  0.001224611 0.0001018711  0.007951107 0.0004300141  0.007951107 0.0004300141 3.959435e-06    716.2006    236.4708  65.8148339  -1.3468463  65.8148339  -1.3468463
        68  0.002212431 0.0001440675    0.0152594 0.0005425403    0.0152594 0.0005425403   2.1373e-06    275.3608    237.7471  65.8197334  -1.3468321  65.8197334  -1.3468321
        69  0.001099365 9.713029e-05  0.005156711 0.0003848615  0.005156711 0.0003848615 1.482669e-07    826.1926    234.2955  65.8136114  -1.3468705  65.8136114  -1.3468705
        70  0.006676658 0.0002379197   0.02640592 0.0007860956   0.02640592 0.0007860956 2.176201e-06    548.1449    266.4114  65.8167017  -1.3465136  65.8167017  -1.3465136
        71 0.0003903677 6.143059e-05  0.004621449  0.000288135  0.004621449  0.000288135 -1.074513e-07   1016.7526    232.9981  65.8114935  -1.3468849  65.8114935  -1.3468849
        72  0.003254594 0.0001682346   0.01583511 0.0006544592   0.01583511 0.0006544592 -2.234367e-06    467.7724    247.4410  65.8175949  -1.3467244  65.8175949  -1.3467244
        73 0.0003891167 6.143059e-05  0.006017243 0.0002815103  0.006017243 0.0002815103 -9.675376e-07   1073.5017   1009.5002  65.8108628  -1.3382571  65.8108628  -1.3382571
        74 0.0004232138 6.143059e-05  0.002996149 0.0002214911  0.002996149 0.0002214911 -1.017708e-05     49.9983   1248.5013  65.8222381  -1.3356015  65.8222381  -1.3356015
        75  0.000310951 5.320045e-05  0.003414246 0.0002476346  0.003414246 0.0002476346 -1.338938e-05    392.9809   1247.0000  65.8184262  -1.3356182  65.8184262  -1.3356182
        76  0.001641831 0.0001228612  0.005154552 0.0003711343  0.005154552 0.0003711343 -3.70835e-06    628.3259    941.3403  65.8158105  -1.3390144  65.8158105  -1.3390144
        77 0.0005126814 6.868149e-05  0.004629817 0.0002913909  0.004629817 0.0002913909 2.991979e-08    491.2007    933.6005  65.8173346  -1.3391004  65.8173346  -1.3391004
        78 0.0006314598  7.52368e-05  0.004746781 0.0003086849  0.004746781 0.0003086849 2.954971e-06    719.4942    932.0228  65.8147973  -1.3391179  65.8147973  -1.3391179
        79  0.002029263  0.000130314    0.0100062 0.0005194428    0.0100062 0.0005194428 2.105457e-06    842.9460    928.5419  65.8134252  -1.3391566  65.8134252  -1.3391566
        80 0.0005323502 6.868149e-05  0.003728089  0.000288135  0.003728089  0.000288135 -8.611886e-06    605.5999    929.2167  65.8160631  -1.3391491  65.8160631  -1.3391491
        81  0.001772503 0.0001189598  0.005281191  0.000376184  0.005281191  0.000376184 2.901475e-06    727.9291    926.7647  65.8147035  -1.3391764  65.8147035  -1.3391764
        82 0.0007190588 8.126503e-05  0.004991726 0.0003378682  0.004991726 0.0003378682 -7.829459e-06    599.9883    928.0171  65.8161255  -1.3391624  65.8161255  -1.3391624
        83  0.004460432 0.0001942606   0.02611845 0.0008056546   0.02611845 0.0008056546 -2.991085e-07    374.3494    923.8545  65.8186333  -1.3392087  65.8186333  -1.3392087
        84  0.001996435 0.0001266424  0.007256028 0.0004607294  0.007256028 0.0004607294 3.898689e-07    327.8763    923.8588  65.8191498  -1.3392087  65.8191498  -1.3392087
        85  0.005889854 0.0002277907   0.03574661  0.001031138   0.03574661  0.001031138 -7.71843e-07    398.4309    917.1326  65.8183656  -1.3392834  65.8183656  -1.3392834
        86 0.0003199897 5.320045e-05   0.00358612 0.0002514155   0.00358612 0.0002514155 -7.86904e-06    591.0000    911.0102  65.8162254  -1.3393514  65.8162254  -1.3393514
        87 0.0004370709 6.143059e-05  0.002836293 0.0002532848  0.002836293 0.0002532848 -2.084887e-06    675.5054    904.5078  65.8152862  -1.3394237  65.8152862  -1.3394237
        88  0.003663995 0.0001764459   0.01163718 0.0005987513   0.01163718 0.0005987513  1.46999e-06    237.2816    902.9501  65.8201566  -1.3394410  65.8201566  -1.3394410
        89  0.001022144 9.713029e-05  0.004253574 0.0003056133  0.004253574 0.0003056133 -4.274791e-07    703.1692    902.0008  65.8149787  -1.3394515  65.8149787  -1.3394515
        90  0.002283226 0.0001407552   0.01232716 0.0006058003   0.01232716 0.0006058003 -2.170056e-07    719.1297    887.0341  65.8148013  -1.3396178  65.8148013  -1.3396178
        91 0.0009437484 9.214588e-05   0.00624316 0.0003811668   0.00624316 0.0003811668 2.354563e-06    770.9941    899.3310  65.8142249  -1.3394812  65.8142249  -1.3394812
        92  0.000733282 8.126503e-05  0.006773832 0.0003555552  0.006773832 0.0003555552 2.513267e-07   1019.2899    880.9855  65.8114653  -1.3396850  65.8114653  -1.3396850
        93   0.00259733 0.0001440675   0.01376395 0.0005746306   0.01376395 0.0005746306 -9.642867e-06    508.7469    869.2224  65.8171395  -1.3398157  65.8171395  -1.3398157
        94  0.000432223 6.143059e-05  0.003304466 0.0002677697  0.003304466 0.0002677697 1.537804e-06    801.4946    862.5076  65.8138859  -1.3398903  65.8138859  -1.3398903
        95 0.0005493672 6.868149e-05   0.00360107  0.000283181   0.00360107  0.000283181 -2.32499e-06    311.7930    859.4125  65.8193285  -1.3399247  65.8193285  -1.3399247
        96  0.001187393 0.0001064009  0.007788884  0.000362128  0.007788884  0.000362128 -1.278014e-07    749.0001    854.0045  65.8144693  -1.3399848  65.8144693  -1.3399848
        97 0.0003261617 5.320045e-05  0.002390906 0.0002128018  0.002390906 0.0002128018 -1.197216e-05    635.3157    848.6572  65.8157328  -1.3400442  65.8157328  -1.3400442
        98  0.002162052  0.000137363   0.01445741 0.0005819718   0.01445741 0.0005819718 -1.027253e-06    932.6139    845.6368  65.8124286  -1.3400778  65.8124286  -1.3400778
        99 0.0004026269 6.143059e-05  0.005220839 0.0002913909  0.005220839 0.0002913909  2.04329e-06    181.9920    844.7550  65.8207711  -1.3400876  65.8207711  -1.3400876
       100  0.000424026 6.143059e-05  0.003471158 0.0002677697  0.003471158 0.0002677697 -9.36559e-06    688.4928    842.5009  65.8151418  -1.3401126  65.8151418  -1.3401126
       101   0.00119329 0.0001018711   0.01092294 0.0004332926   0.01092294 0.0004332926 2.847749e-06   1127.0076    839.9799  65.8102681  -1.3401406  65.8102681  -1.3401406
       102  0.001182345 0.0001018711  0.006888019 0.0004086404  0.006888019 0.0004086404 2.440325e-06   1044.6300    838.1014  65.8111837  -1.3401615  65.8111837  -1.3401615
       103  0.000894691 8.687597e-05  0.005111369  0.000360823  0.005111369  0.000360823 -7.051416e-06    708.4952    837.8563  65.8149195  -1.3401642  65.8149195  -1.3401642
       104    0.0047768 0.0001942606   0.01073619 0.0006580533   0.01073619 0.0006580533 -1.293266e-05    628.1868    834.1858  65.8158121  -1.3402050  65.8158121  -1.3402050
       105  0.002305364 0.0001338849  0.006029538 0.0004211469  0.006029538 0.0004211469 -1.319552e-05    620.5095    832.9654  65.8158974  -1.3402186  65.8158974  -1.3402186
       106 0.0008766348 8.687597e-05  0.004556678 0.0003502083  0.004556678 0.0003502083 2.981129e-06   1022.1294    827.8475  65.8114337  -1.3402754  65.8114337  -1.3402754
       107  0.001000656 9.713029e-05  0.007924558  0.000413232  0.007924558  0.000413232 -4.393718e-06    761.9961    824.1989  65.8143249  -1.3403160  65.8143249  -1.3403160
       108  0.001394003 0.0001107456  0.004536471 0.0003957389  0.004536471 0.0003957389 -1.457656e-05    575.7553    813.6935  65.8163948  -1.3404327  65.8163948  -1.3404327
       109  0.001204384 0.0001064009   0.01363117 0.0005185339   0.01363117 0.0005185339 4.458207e-06   1070.6819    804.3653  65.8108941  -1.3405364  65.8108941  -1.3405364
       110  0.002108776 0.0001338849  0.006967161 0.0004788041  0.006967161 0.0004788041 -1.175026e-05    684.7363    801.5862  65.8151836  -1.3405672  65.8151836  -1.3405672
       111  0.001594105 0.0001149261  0.004214771  0.000342031  0.004214771  0.000342031 -1.499048e-05    615.3485    794.8868  65.8159548  -1.3406417  65.8159548  -1.3406417
       112  0.003326498 0.0001764459   0.02347608  0.000671535   0.02347608  0.000671535 8.131083e-07    201.5924    790.9291  65.8205533  -1.3406856  65.8205533  -1.3406856
       113 0.0005037313 6.868149e-05  0.005367794 0.0003086849  0.005367794 0.0003086849 4.935937e-06   1044.1877    792.3958  65.8111886  -1.3406693  65.8111886  -1.3406693
       114  0.004140916 0.0001842918   0.01572233 0.0005955917   0.01147637 0.0008218866 -1.001511e-05    561.7377    771.3696  65.8165506  -1.3409030  65.8165506  -1.3409030
       115  0.005412956 0.0002014137   0.02059961 0.0007294478   0.02059961 0.0007294478 -1.022178e-05    552.6364    774.6398  65.8166517  -1.3408666  65.8166517  -1.3408666
       116 0.0007075209 8.126503e-05  0.005595951 0.0003378682  0.005595951 0.0003378682 9.747215e-07   1213.9956    765.9985  65.8093013  -1.3409626  65.8093013  -1.3409626
       117 0.0006303082  7.52368e-05  0.004668516 0.0003279496  0.004668516 0.0003279496 1.239328e-06    185.6658    762.6668  65.8207303  -1.3409997  65.8207303  -1.3409997
       118  0.002330337 0.0001440675    0.0161189 0.0006508454    0.0161189 0.0006508454 -9.880423e-06    738.9271    759.6987  65.8145813  -1.3410327  65.8145813  -1.3410327
       119  0.007683192 0.0002339207    0.0115307 0.0004648067    0.0115307 0.0004648067 -1.07333e-05    618.5308    751.7919  65.8159194  -1.3411205  65.8159194  -1.3411205
       120   0.00158958 0.0001107456  0.003390077 0.0003009472  0.003734842 0.0004683065 -1.11553e-05    612.2535    755.8372  65.8159892  -1.3410756  65.8159892  -1.3410756
       121   0.00084072 8.687597e-05  0.006877262 0.0003774358  0.006877262 0.0003774358 -7.21128e-06    801.7544    753.9934  65.8138830  -1.3410960  65.8138830  -1.3410960
       122  0.001832719 0.0001189598  0.004064012 0.0003132358  0.004064012 0.0003132358 -1.018773e-05    637.0108    745.1480  65.8157140  -1.3411943  65.8157140  -1.3411943
       123  0.003824014 0.0001764459   0.01313105 0.0005621822   0.01313105 0.0005621822 -3.777999e-06    547.3569    742.5972  65.8167104  -1.3412227  65.8167104  -1.3412227
       124  0.001877306 0.0001266424   0.01269274 0.0005257612   0.01269274 0.0005257612 -1.040616e-05    654.6661    746.8863  65.8155178  -1.3411750  65.8155178  -1.3411750
       125  0.002796246 0.0001566179   0.02104181 0.0006587697   0.02104181 0.0006587697 -3.327639e-06    884.0221    745.2972  65.8129687  -1.3411927  65.8129687  -1.3411927
       126  0.004079076 0.0001764459   0.02469018 0.0007409966   0.02469018 0.0007409966 -4.229902e-06    446.3771    742.7870  65.8178327  -1.3412206  65.8178327  -1.3412206
       127  0.008565938 0.0002457224   0.01134007 0.0003774358   0.01134007 0.0003774358 -9.025733e-06    657.6249    734.3089  65.8154849  -1.3413148  65.8154849  -1.3413148
       128 0.0003081628 5.320045e-05  0.004004219 0.0002514155  0.004004219 0.0002514155 -7.578782e-06    811.9917    732.0000  65.8137692  -1.3413404  65.8137692  -1.3413404
       129 0.0009723647 9.214588e-05  0.005781393 0.0003799272  0.005781393 0.0003799272 -5.143086e-06    866.3486    725.4409  65.8131651  -1.3414133  65.8131651  -1.3414133
       130  0.003680198 0.0001654069   0.02127446 0.0006792179   0.02127446 0.0006792179 -1.768231e-06    494.7150    712.7728  65.8172955  -1.3415541  65.8172955  -1.3415541
       131  0.000411443 6.143059e-05  0.004294354 0.0002695256  0.004294354 0.0002695256 2.545979e-06    928.4969    714.5051  65.8124744  -1.3415348  65.8124744  -1.3415348
       132  0.003804583 0.0001737519  0.007682907 0.0004256036  0.007682907 0.0004256036 3.381961e-07    645.8885    703.5624  65.8156153  -1.3416564  65.8156153  -1.3416564
       133  0.003017967 0.0001566179  0.005256867 0.0004039966  0.005256867 0.0004039966 1.227615e-06    635.6109    701.8156  65.8157296  -1.3416758  65.8157296  -1.3416758
       134  0.003896058 0.0001764459   0.01121242 0.0005955917   0.01000672 0.0007691411 6.530013e-06    673.6945    680.4752  65.8153063  -1.3419129  65.8153063  -1.3419129
       135   0.01112753 0.0002930052   0.02056165 0.0005084286   0.02056165 0.0005084286 3.485212e-06    671.5733    690.7809  65.8153299  -1.3417984  65.8153299  -1.3417984
       136 0.0005268644 6.868149e-05  0.003457251  0.000283181  0.003457251  0.000283181 5.861346e-07    212.8100    697.3927  65.8204286  -1.3417249  65.8204286  -1.3417249
       137  0.001070261 9.713029e-05  0.007026261  0.000413232  0.007026261  0.000413232 -3.143688e-07    368.3235    693.7875  65.8187002  -1.3417650  65.8187002  -1.3417650
       138  0.001143851 0.0001018711  0.007248729 0.0004155088  0.007248729 0.0004155088 1.205051e-06    322.9056    680.2633  65.8192050  -1.3419153  65.8192050  -1.3419153
       139 0.0007510834 8.126503e-05  0.004310944 0.0003279496  0.004310944 0.0003279496 -1.315309e-06    471.0044    679.7185  65.8175590  -1.3419213  65.8175590  -1.3419213
       140 0.0006415976  7.52368e-05  0.005138563 0.0003206771  0.005138563 0.0003206771 1.228244e-06    342.1606    678.1669  65.8189910  -1.3419386  65.8189910  -1.3419386
       141  0.001006881 9.214588e-05  0.005627171 0.0003885211  0.005627171 0.0003885211  5.51318e-06    683.8705    676.7704  65.8151932  -1.3419541  65.8151932  -1.3419541
       142   0.01346412 0.0002848419   0.03542095  0.001018248   0.02156484 0.0009829801 1.014947e-05    637.0105    662.0242  65.8157140  -1.3421179  65.8157140  -1.3421179
       143  0.006446413 0.0002150071   0.02022406 0.0007938582   0.01304615 0.0008544015 9.693656e-06    649.3204    671.6762  65.8155772  -1.3420107  65.8155772  -1.3420107
       144  0.003876705 0.0001764459   0.01173021 0.0006219373   0.01009558 0.0007724899 9.427766e-06    656.2596    662.7826  65.8155001  -1.3421095  65.8155001  -1.3421095
       145   0.01705931 0.0003488587   0.04219382  0.001528375   0.03421223  0.001380306  9.73164e-06    648.1634    655.7205  65.8155900  -1.3421880  65.8155900  -1.3421880
       146   0.01357147 0.0003322367   0.07787604  0.001518777   0.03666339  0.001470786 9.275828e-06    659.5118    647.5956  65.8154639  -1.3422782  65.8154639  -1.3422782
       147  0.002540536 0.0001338849  0.004355709 0.0002214911  0.004355709 0.0002214911 1.045334e-05    629.3125    665.3079  65.8157996  -1.3420814  65.8157996  -1.3420814
       148  0.001765783 0.0001189598  0.005258971 0.0003885211  0.005258971 0.0003885211 1.760333e-06    351.3388    659.7255  65.8188890  -1.3421435  65.8188890  -1.3421435
       149  0.003701792 0.0001764459   0.01137228 0.0005843983   0.01137228 0.0005843983 5.234695e-06    634.0835   1019.4443  65.8157465  -1.3381466  65.8157465  -1.3381466
       150 0.0004480251 6.143059e-05  0.002851587 0.0002532848  0.002851587 0.0002532848 -1.41039e-06    430.4959    631.4879  65.8180092  -1.3424572  65.8180092  -1.3424572
       151  0.005077517 0.0002083213   0.02526457 0.0008349816   0.02526457 0.0008349816 9.432649e-07    705.5437    598.6318  65.8149523  -1.3428223  65.8149523  -1.3428223
       152 0.0005177952 6.868149e-05  0.004534029 0.0002993756  0.004534029 0.0002993756 3.922706e-07    383.7898    600.4103  65.8185283  -1.3428025  65.8185283  -1.3428025
       153  0.001825634 0.0001266424   0.00715306 0.0003873051   0.00715306 0.0003873051 -1.824536e-06    494.5000    626.8676  65.8172979  -1.3425086  65.8172979  -1.3425086
       154  0.002839176 0.0001535765   0.01937706 0.0006398815   0.01937706 0.0006398815 3.279497e-06    683.4776    591.8495  65.8151976  -1.3428976  65.8151976  -1.3428976
       155  0.002956878 0.0001654069   0.02208339 0.0007403597   0.02208339 0.0007403597 -8.245451e-07   1145.2080    589.3760  65.8100658  -1.3429251  65.8100658  -1.3429251
       156    0.1712131  0.001077665    0.3582234   0.00413369    0.3168534  0.004089397 9.199859e-06    661.5849    616.1102  65.8154409  -1.3426281  65.8154409  -1.3426281
       157   0.03054309 0.0003025106   0.02415362 0.0004778178   0.03477598 0.0006538998 1.071923e-05    622.3028    627.7877  65.8158775  -1.3424983  65.8158775  -1.3424983
       158  0.002834064 0.0001504736   0.01688799 0.0006050211   0.01688799 0.0006050211 -8.981486e-07   1132.8477    585.6552  65.8102032  -1.3429665  65.8102032  -1.3429665
       159 0.0009499798 8.687597e-05  0.004107839 0.0003117262  0.004107839 0.0003117262 -2.485807e-06    718.6342    579.7221  65.8148068  -1.3430324  65.8148068  -1.3430324
       160   0.03419255 0.0003406491   0.03170727 0.0007678824   0.04011048 0.0007907937 1.045334e-05    629.1899    624.6005  65.8158009  -1.3425337  65.8158009  -1.3425337
       161  0.004891428 0.0001842918   0.01161579 0.0005605015   0.01161579 0.0005605015 1.497742e-06    636.8207    574.8602  65.8157161  -1.3430864  65.8157161  -1.3430864
       162 0.0005988855  7.52368e-05  0.004639017 0.0003071529  0.004639017 0.0003071529 -1.244156e-06    910.5002    575.4986  65.8126744  -1.3430793  65.8126744  -1.3430793
       163   0.01761291 0.0003685836   0.04744275  0.001179643   0.04744275  0.001179643 -1.589295e-06    578.0302    570.2245  65.8163695  -1.3431379  65.8163695  -1.3431379
       164     0.001773 0.0001228612  0.006970285 0.0003885211  0.006970285 0.0003885211 -3.308334e-06    865.4882    574.9944  65.8131747  -1.3430849  65.8131747  -1.3430849
       165   0.00040991 6.143059e-05  0.004040551 0.0002712701  0.004040551 0.0002712701 -5.756069e-07   1116.5031    566.5015  65.8103848  -1.3431793  65.8103848  -1.3431793
       166  0.005038928 0.0002083213   0.01742357 0.0006428235   0.01742357 0.0006428235 -3.051876e-06    670.1149    560.1372  65.8153461  -1.3432500  65.8153461  -1.3432500
       167  0.009372437 0.0002551404   0.01368946 0.0004343799   0.01368946 0.0004343799 -3.701477e-06    616.9816    552.6895  65.8159366  -1.3433328  65.8159366  -1.3433328
       168  0.004493318  0.000191817   0.02360262 0.0008062399   0.02360262 0.0008062399 -9.199135e-07    984.8155    616.2036  65.8118484  -1.3426270  65.8118484  -1.3426270
       169 0.0009112521 9.214588e-05   0.01047073 0.0004233811   0.01047073 0.0004233811 -3.727802e-06    384.5605    558.6570  65.8185198  -1.3432664  65.8185198  -1.3432664
       170  0.004459281 0.0001842918   0.01501284 0.0006658917   0.01501284 0.0006658917 -4.096397e-06    753.9860    552.8305  65.8144139  -1.3433312  65.8144139  -1.3433312
       171  0.001868271 0.0001228612  0.005820452 0.0003528919  0.005820452 0.0003528919 -4.117222e-06    746.1266    554.8668  65.8145013  -1.3433086  65.8145013  -1.3433086
       172  0.003698841 0.0001654069  0.008954076 0.0005364196  0.008954076 0.0005364196 2.996744e-07    644.2802    571.2703  65.8156332  -1.3431263  65.8156332  -1.3431263
       173  0.007877307 0.0002457224  0.009413241 0.0006249638   0.01822787  0.001033215 9.807609e-06    646.1902    641.2485  65.8156120  -1.3423488  65.8156120  -1.3423488
       174  0.004154712 0.0001790994   0.01162888 0.0005266576   0.01162888 0.0005266576 -4.177402e-06    605.6147    551.4205  65.8160629  -1.3433469  65.8160629  -1.3433469
       175 0.0004312706 6.143059e-05  0.003153811 0.0002677697  0.003153811 0.0002677697  3.03403e-06    213.4944    615.4980  65.8204210  -1.3426349  65.8204210  -1.3426349
       176   0.00246908 0.0001504736   0.01103734 0.0005346579   0.01103734 0.0005346579 -2.796149e-06    862.1760    543.5276  65.8132115  -1.3434346  65.8132115  -1.3434346
       177  0.002185831 0.0001338849  0.007372078 0.0004586772  0.007372078 0.0004586772 -3.130538e-06    731.8467    611.4149  65.8146600  -1.3426803  65.8146600  -1.3426803
       178   0.00299851 0.0001596014   0.00832093 0.0004397761   0.00832093 0.0004397761 -4.324577e-06    756.8106    541.2472  65.8143825  -1.3434599  65.8143825  -1.3434599
       179  0.002712578 0.0001473054  0.009159618 0.0004768296  0.009159618 0.0004768296 -6.005779e-07    526.0043    634.2665  65.8169477  -1.3424263  65.8169477  -1.3424263
       180  0.001710461 0.0001228612  0.005078996 0.0003475039  0.005078996 0.0003475039 -6.598277e-06    701.7336    534.1353  65.8149947  -1.3435389  65.8149947  -1.3435389
       181  0.001938201 0.0001228612  0.005896174 0.0004063252  0.005896174 0.0004063252 -4.894499e-06    753.8094    532.3676  65.8144159  -1.3435586  65.8144159  -1.3435586
       182 0.0002932573 5.320045e-05  0.003815794 0.0002257104  0.003815794 0.0002257104 -6.291021e-07   1147.3372    528.3273  65.8100421  -1.3436034  65.8100421  -1.3436034
       183 0.0006414652  7.52368e-05  0.004149301 0.0003102093  0.004149301 0.0003102093 -2.734894e-06    476.0016    608.8212  65.8175035  -1.3427091  65.8175035  -1.3427091
       184 0.0004322178 6.143059e-05  0.003630694  0.000274726  0.003630694  0.000274726 -5.621874e-06    365.2627    523.2393  65.8187343  -1.3436600  65.8187343  -1.3436600
       185   0.01175136  0.000274726   0.01497055 0.0004708566   0.01497055 0.0004708566 -9.344957e-06    592.7092    515.1492  65.8162064  -1.3437499  65.8162064  -1.3437499
       186 0.0002991403 5.320045e-05  0.003472587 0.0002437951  0.003472587 0.0002437951 -1.586696e-06    897.0027    519.0000  65.8128244  -1.3437071  65.8128244  -1.3437071
       187    0.0015757 0.0001149261  0.004830982 0.0003581988  0.004830982 0.0003581988 -9.324024e-06    702.5654    504.2203  65.8149854  -1.3438713  65.8149854  -1.3438713
       188  0.008578992 0.0002569826   0.01537406 0.0008355464   0.01537406 0.0008355464 -1.166897e-05    632.4993    500.0635  65.8157641  -1.3439175  65.8157641  -1.3439175
       189    0.0033811 0.0001504736  0.005631252 0.0003515526  0.006143475 0.0005650381 -1.266803e-05    631.7142    492.0701  65.8157729  -1.3440063  65.8157729  -1.3440063
       190 0.0002996152 5.320045e-05  0.003415476 0.0002257104  0.003415476 0.0002257104 9.159048e-07    116.3313    500.3367  65.8215009  -1.3439144  65.8215009  -1.3439144
       191 0.0005455305 6.868149e-05   0.00437327 0.0002897675   0.00437327 0.0002897675 -9.327425e-06    530.7915    497.4072  65.8168945  -1.3439470  65.8168945  -1.3439470
       192 0.0008037952 8.687597e-05  0.006088523 0.0003698611  0.006088523 0.0003698611 1.357883e-06   1066.0187    493.8647  65.8109459  -1.3439864  65.8109459  -1.3439864
       193  0.001735192 0.0001189598  0.004774207 0.0003595133  0.004774207 0.0003595133 -1.05382e-05    558.1380    490.3106  65.8165906  -1.3440259  65.8165906  -1.3440259
       194  0.001192088 9.713029e-05  0.003463876 0.0003206771  0.003463876 0.0003206771 -1.305787e-05    639.0024    489.1704  65.8156919  -1.3440385  65.8156919  -1.3440385
       195  0.001235754 9.713029e-05  0.003861076 0.0003221447  0.003861076 0.0003221447 -1.13735e-05    695.9925    487.8347  65.8150585  -1.3440534  65.8150585  -1.3440534
       196  0.001552809 0.0001149261   0.01113218 0.0005056376   0.01113218 0.0005056376 -1.239647e-05    686.0933    486.2613  65.8151685  -1.3440708  65.8151685  -1.3440708
       197  0.003921589 0.0001817141   0.02262525 0.0006833721   0.02262525 0.0006833721 -1.489978e-06    492.2783    644.1307  65.8173226  -1.3423167  65.8173226  -1.3423167
       198  0.001493117 0.0001189598   0.01388547 0.0005148822   0.01388547 0.0005148822 -3.25564e-07   1115.3340    482.0713  65.8103978  -1.3441174  65.8103978  -1.3441174
       199  0.004376533 0.0001868338     0.025816 0.0007848945     0.025816 0.0007848945 -1.190451e-05    700.2930    478.0403  65.8150107  -1.3441622  65.8150107  -1.3441622
       200 0.0008415338 8.687597e-05  0.006099626 0.0003698611  0.006099626 0.0003698611 -8.782928e-06    445.0022    479.1263  65.8178480  -1.3441501  65.8178480  -1.3441501
       201 0.0006867987 8.126503e-05  0.006382505 0.0003542261  0.006382505 0.0003542261 -3.890074e-06     60.0014    478.7131  65.8221270  -1.3441547  65.8221270  -1.3441547
       202 0.0003164921 5.320045e-05  0.003008386 0.0002150071  0.003008386 0.0002150071  1.25733e-06   1055.3220    477.3342  65.8110648  -1.3441700  65.8110648  -1.3441700
       203   0.00449299 0.0001893418   0.03184102 0.0008207366   0.03184102 0.0008207366 1.881822e-06   1050.7488    460.8300  65.8111156  -1.3443534  65.8111156  -1.3443534
       204  0.001405107 0.0001018711   0.00313016 0.0002037422   0.00313016 0.0002037422 -1.558298e-05    629.0745    458.7368  65.8158022  -1.3443767  65.8158022  -1.3443767
       205 0.0005981938  7.52368e-05  0.005966229 0.0003236057  0.005966229 0.0003236057 -9.332298e-07   1151.4937    457.0074  65.8099959  -1.3443959  65.8099959  -1.3443959
       206  0.001370385 0.0001107456  0.006901155 0.0003811668  0.006901155 0.0003811668 9.862797e-07   1091.3618    456.2565  65.8106643  -1.3444042  65.8106643  -1.3444042
       207  0.001692326 0.0001228612    0.0110489    0.0005075    0.0110489    0.0005075 2.482914e-06    181.0487    452.6540  65.8207816  -1.3444443  65.8207816  -1.3444443
       208  0.001443265 0.0001107456  0.007762845 0.0004109426  0.007762845 0.0004109426 -4.130763e-06    797.6735    605.7928  65.8139284  -1.3427427  65.8139284  -1.3427427
       209  0.001080567 9.713029e-05  0.005654452 0.0003957389  0.005654452 0.0003957389 -8.306954e-06    563.9929    441.4978  65.8165255  -1.3445682  65.8165255  -1.3445682
       210  0.002422012 0.0001407552   0.01575514 0.0005892215   0.01575514 0.0005892215 -1.609377e-06    891.0624    436.8740  65.8128904  -1.3446196  65.8128904  -1.3446196
       211  0.001079891 9.713029e-05  0.004189556 0.0002993756  0.004189556 0.0002993756 -2.62574e-06    465.4968    604.9903  65.8176202  -1.3427516  65.8176202  -1.3427516
       212 0.0006144306  7.52368e-05   0.00631413 0.0003308138   0.00631413 0.0003308138 1.980535e-06    155.8220    436.1780  65.8210620  -1.3446273  65.8210620  -1.3446273
       213 0.0005507245 6.868149e-05  0.004248706  0.000283181  0.004248706  0.000283181 -1.817508e-05    621.3984    421.7878  65.8158875  -1.3447872  65.8158875  -1.3447872
       214  0.002125145 0.0001228612  0.004368304 0.0003279496  0.004368304 0.0003279496 -1.831519e-05    631.3718    419.9922  65.8157767  -1.3448072  65.8157767  -1.3448072
       215 0.0009990645 9.713029e-05   0.01157892  0.000448275   0.01157892  0.000448275 3.679772e-06   1054.7042    419.7877  65.8110717  -1.3448094  65.8110717  -1.3448094
       216    0.0013395 0.0001064009  0.006558666 0.0004109426  0.006558666 0.0004109426 -1.886416e-06    847.1703    413.2397  65.8133783  -1.3448822  65.8133783  -1.3448822
       217 0.0008293263 8.687597e-05  0.006858223 0.0003698611  0.006858223 0.0003698611 -9.061743e-06    324.1252    414.1197  65.8191915  -1.3448724  65.8191915  -1.3448724
       218  0.002205274 0.0001407552   0.01824477 0.0005605015   0.01824477 0.0005605015 -9.030133e-06    295.9470    413.3990  65.8195046  -1.3448804  65.8195046  -1.3448804
       219  0.001455453 0.0001149261  0.007370033 0.0004545448  0.007370033 0.0004545448 -1.740461e-05    618.4948    410.7163  65.8159198  -1.3449102  65.8159198  -1.3449102
       220  0.002252408 0.0001440675   0.01366376 0.0005372982   0.01366376 0.0005372982 3.008484e-06   1068.1580    409.4792  65.8109222  -1.3449240  65.8109222  -1.3449240
       221   0.00112065 0.0001018711    0.0116652 0.0004904839    0.0116652 0.0004904839 -1.961037e-07    185.9991    406.8177  65.8207266  -1.3449535  65.8207266  -1.3449535
       222  0.001756091 0.0001266424  0.006111206 0.0004267105  0.006111206 0.0004267105 -1.622633e-05    614.5981    405.1740  65.8159631  -1.3449718  65.8159631  -1.3449718
       223 0.0008567865 8.687597e-05  0.006092094 0.0003647239  0.006092094 0.0003647239 -6.478538e-06    270.1345    404.1399  65.8197915  -1.3449833  65.8197915  -1.3449833
       224 0.0006112858  7.52368e-05  0.006773429 0.0003364692  0.006773429 0.0003364692 -1.565519e-06    108.1743    399.8305  65.8215916  -1.3450312  65.8215916  -1.3450312
       225   0.00169205 0.0001189598  0.004567903 0.0003025106  0.004567903 0.0003025106 -1.319804e-05    605.4800    395.1490  65.8160644  -1.3450832  65.8160644  -1.3450832
       226   0.00179657  0.000130314   0.01027172 0.0004472214   0.01027172 0.0004472214 1.462015e-06   1006.7004    391.5948  65.8116052  -1.3451227  65.8116052  -1.3451227
       227 0.0003139859 5.320045e-05   0.00324377 0.0002214911   0.00324377 0.0002214911 -1.960014e-06    196.6780    392.3413  65.8206079  -1.3451144  65.8206079  -1.3451144
       228  0.000862478 8.687597e-05  0.004669828 0.0003502083  0.004669828 0.0003502083  9.99655e-07    518.4979    388.9940  65.8170312  -1.3451516  65.8170312  -1.3451516
       229 0.0003390293 5.320045e-05  0.001955971 0.0002128018  0.001955971 0.0002128018 -1.039177e-05    644.3157    360.6545  65.8156328  -1.3454665  65.8156328  -1.3454665
       230  0.001032424 9.214588e-05  0.005412107  0.000362128  0.005412107  0.000362128 -1.158426e-05    660.3490    358.5594  65.8154546  -1.3454898  65.8154546  -1.3454898
       231  0.001612218 0.0001149261  0.008049109 0.0004472214  0.008049109 0.0004472214 -9.633227e-06    701.4811    355.7203  65.8149975  -1.3455213  65.8149975  -1.3455213
       232 0.0006963584  7.52368e-05  0.003402511  0.000288135  0.003402511  0.000288135 -1.011478e-05    650.4860    355.0203  65.8155642  -1.3455291  65.8155642  -1.3455291
       233  0.001374524 0.0001107456  0.008470843 0.0004440459  0.008470843 0.0004440459 -5.017122e-06    747.4619    348.7702  65.8144864  -1.3455985  65.8144864  -1.3455985
       234  0.002466973 0.0001440675   0.01003876 0.0005293378   0.01003876 0.0005293378  1.04671e-06   1015.0361    348.0302  65.8115126  -1.3456067  65.8115126  -1.3456067
       235  0.001222376 0.0001018711  0.004183676 0.0003542261  0.004183676 0.0003542261  -8.5424e-06    660.3605    340.3650  65.8154545  -1.3456919  65.8154545  -1.3456919
       236  0.001012673 9.713029e-05  0.006211131 0.0003336535  0.006211131 0.0003336535 3.489464e-06    520.5012    339.9995  65.8170089  -1.3456960  65.8170089  -1.3456960
       237 0.0004183296 6.143059e-05  0.003815954 0.0002677697  0.003815954 0.0002677697 -7.089594e-06    710.4878    339.5013  65.8148974  -1.3457015  65.8148974  -1.3457015
       238 0.0007435033 8.126503e-05  0.004181668 0.0003475039  0.004181668 0.0003475039 3.405365e-06    537.7109    338.9986  65.8168176  -1.3457071  65.8168176  -1.3457071
       239 0.0003981982 6.143059e-05  0.005072167  0.000274726  0.005072167  0.000274726 3.626294e-06    491.4975    337.5018  65.8173313  -1.3457237  65.8173313  -1.3457237
       240 0.0003184993 5.320045e-05  0.003422259 0.0002257104  0.003422259 0.0002257104 -7.219659e-06    316.3388    334.6800  65.8192780  -1.3457551  65.8192780  -1.3457551
       241  0.002010171  0.000130314   0.01183447 0.0004768296   0.01183447 0.0004768296 -2.358453e-06    787.1322    330.9272  65.8140455  -1.3457968  65.8140455  -1.3457968
       242 0.0008294546 8.687597e-05  0.006691603 0.0003885211  0.006691603 0.0003885211 -9.421374e-07    407.7368    329.6354  65.8182622  -1.3458111  65.8182622  -1.3458111
       243 0.0004219647 6.143059e-05  0.004848466  0.000288135  0.004848466  0.000288135 7.436327e-07    951.7556    328.2451  65.8122159  -1.3458266  65.8122159  -1.3458266
       244  0.000427203 6.143059e-05  0.003131845 0.0002624316  0.003131845 0.0002624316 1.720351e-06    422.5135    340.4933  65.8180980  -1.3456905  65.8180980  -1.3456905
       245 0.0003918317 6.143059e-05  0.005214849 0.0002913909  0.005214849 0.0002913909 -1.883222e-06    878.2452    326.7501  65.8130329  -1.3458432  65.8130329  -1.3458432
       246 0.0009316855 9.214588e-05  0.006776867 0.0003909419  0.006776867 0.0003909419 3.378807e-06    543.1170    325.6649  65.8167576  -1.3458553  65.8167576  -1.3458553
       247 0.0003058368 5.320045e-05  0.003351818 0.0002257104  0.003351818 0.0002257104 -3.442884e-06    389.3350    326.3349  65.8184667  -1.3458478  65.8184667  -1.3458478
       248  0.002367683 0.0001440675   0.01044732 0.0005416701   0.01044732 0.0005416701 -3.760221e-06    751.4023    320.2456  65.8144426  -1.3459155  65.8144426  -1.3459155
       249 0.0009833029 9.214588e-05  0.006243342 0.0003698611  0.006243342 0.0003698611 -5.708324e-07    426.8662    319.6662  65.8180496  -1.3459219  65.8180496  -1.3459219
       250 0.0006158073  7.52368e-05  0.003257921 0.0003009472  0.003257921 0.0003009472 -4.613297e-06    712.5018    315.9975  65.8148750  -1.3459627  65.8148750  -1.3459627
       251  0.001707665 0.0001228612  0.009709985 0.0004943159  0.009709985 0.0004943159 7.507414e-07   1003.2013    311.6254  65.8116441  -1.3460112  65.8116441  -1.3460112
       252 0.0007490637 8.126503e-05  0.004895202 0.0003406491  0.004895202 0.0003406491 2.969435e-06    555.2864    302.0063  65.8166223  -1.3461181  65.8166223  -1.3461181
       253  0.001483208 0.0001149261  0.005480544 0.0003836339  0.005480544 0.0003836339 2.180015e-06    586.8421    296.4775  65.8162716  -1.3461796  65.8162716  -1.3461796
       254   0.00107258 9.713029e-05  0.008131952 0.0004166425  0.008131952 0.0004166425 -7.234489e-06    332.5218    294.2099  65.8190981  -1.3462047  65.8190981  -1.3462047
       255 0.0005395727 6.868149e-05  0.003871118 0.0002848419  0.003871118 0.0002848419 -6.382825e-06    259.8028    294.3932  65.8199064  -1.3462027  65.8199064  -1.3462027
       256   0.00128941 0.0001064009  0.004925984 0.0004051626  0.004925984 0.0004051626 1.933652e-07   1076.3090    283.3438  65.8108316  -1.3463255  65.8108316  -1.3463255
       257 0.0006473502  7.52368e-05  0.005144924 0.0003336535  0.005144924 0.0003336535 4.229244e-07   1062.1711    284.3264  65.8109887  -1.3463146  65.8109887  -1.3463146
       258 0.0009620421 9.214588e-05  0.006543272 0.0003698611  0.006543272 0.0003698611 -5.829954e-07    705.9962    279.0145  65.8149473  -1.3463736  65.8149473  -1.3463736
       259  0.002383976 0.0001440675    0.0125646 0.0005924152    0.0125646 0.0005924152 5.956811e-07    470.0309    275.9486  65.8175698  -1.3464077  65.8175698  -1.3464077
       260  0.001800008 0.0001228612  0.007955114  0.000472856  0.007955114  0.000472856 2.099829e-06    628.5878    275.0912  65.8158076  -1.3464172  65.8158076  -1.3464172
       261 0.0009353565 9.214588e-05  0.006000937 0.0003933477  0.006000937 0.0003933477 -9.074647e-06    626.6568   1240.8794  65.8158291  -1.3356862  65.8158291  -1.3356862
       262  0.004214588 0.0001817141   0.01116156 0.0005112044   0.01027807 0.0007786355 2.498438e-06    631.7441    261.2772  65.8157725  -1.3465707  65.8157725  -1.3465707
       263 0.0004137033 6.143059e-05  0.003757904 0.0002677697  0.003757904 0.0002677697 -1.891138e-06    341.5047    255.5081  65.8189983  -1.3466348  65.8189983  -1.3466348
       264   0.00846106 0.0002551404   0.02683615 0.0008114885   0.02683615 0.0008114885 -5.378367e-06    579.2225   1236.5201  65.8163563  -1.3357346  65.8163563  -1.3357346
       265  0.002402488  0.000137363   0.01630369 0.0005545791   0.01630369 0.0005545791 -5.617691e-06    587.2598   1230.7101  65.8162669  -1.3357992  65.8162669  -1.3357992
       266 0.0003913548 6.143059e-05    0.0044215  0.000274726    0.0044215  0.000274726 -3.571316e-07   1107.5045    262.4957  65.8104848  -1.3465571  65.8104848  -1.3465571
       267 0.0008083906 8.687597e-05   0.00508063 0.0003647239   0.00508063 0.0003647239  5.38452e-07    634.8719    966.7476  65.8157378  -1.3387321  65.8157378  -1.3387321
       268 0.0006113868  7.52368e-05  0.005346963 0.0003378682  0.005346963 0.0003378682 -9.168609e-06    490.3285   1238.1644  65.8173442  -1.3357164  65.8173442  -1.3357164
       269 0.0006634403  7.52368e-05  0.004202502 0.0003009472  0.004202502 0.0003009472 8.274353e-07    474.4963    974.9911  65.8175202  -1.3386405  65.8175202  -1.3386405
       270  0.002576459 0.0001535765   0.01521022 0.0005028311   0.01521022 0.0005028311 -2.771487e-06   1166.2621   1238.5099  65.8098318  -1.3357125  65.8098318  -1.3357125
       271  0.005509673 0.0002150071   0.01741892  0.000724907   0.01741892  0.000724907 -4.97129e-07    619.2560    966.9806  65.8159113  -1.3387295  65.8159113  -1.3387295
       272  0.001382192 0.0001107456  0.008972664 0.0004586772  0.008972664 0.0004586772  -7.1647e-06   1128.4568    982.8448  65.8102520  -1.3385532  65.8102520  -1.3385532
       273 0.0004187889 6.143059e-05  0.003578786 0.0002677697  0.003578786 0.0002677697 -8.457786e-06    434.4882   1224.5007  65.8179649  -1.3358682  65.8179649  -1.3358682
       274  0.003651027 0.0001710155    0.0169962 0.0006580533    0.0169962 0.0006580533 -3.656558e-06    603.2903   1210.4349  65.8160888  -1.3360245  65.8160888  -1.3360245
       275 0.0003393854 5.320045e-05  0.002538169 0.0002128018  0.002538169 0.0002128018 -3.697603e-06    442.6712   1203.6753  65.8178739  -1.3360996  65.8178739  -1.3360996
       276  0.001019672 9.713029e-05  0.009983719 0.0004278145  0.009983719 0.0004278145 -5.032459e-06   1101.4929   1208.1915  65.8105517  -1.3360494  65.8105517  -1.3360494
       277 0.0006419471  7.52368e-05  0.005681622 0.0003279496  0.005681622 0.0003279496 -6.651249e-06    107.3387   1206.3314  65.8216008  -1.3360701  65.8216008  -1.3360701
       278  0.002116602  0.000130314  0.007889227 0.0004807704  0.007889227 0.0004807704 -1.703754e-06    608.4824    963.7725  65.8160311  -1.3387652  65.8160311  -1.3387652
       279 0.0006371178  7.52368e-05  0.004964647 0.0003132358  0.004964647 0.0003132358 -1.538678e-06    864.4907   1183.0122  65.8131858  -1.3363292  65.8131858  -1.3363292
       280  0.002741712 0.0001440675  0.006205948 0.0003475039  0.006205948 0.0003475039 1.447248e-06    588.8900   1195.0219  65.8162488  -1.3361957  65.8162488  -1.3361957
       281  0.001313204 0.0001064009  0.007961695 0.0004387021  0.007961695 0.0004387021 -4.117061e-07    321.8196   1089.7574  65.8192171  -1.3373653  65.8192171  -1.3373653
       282 0.0005132966 6.868149e-05  0.005177199 0.0003086849  0.005177199 0.0003086849 3.413935e-06    199.9947    996.0037  65.8205711  -1.3384070  65.8205711  -1.3384070
       283  0.006257341 0.0002257104   0.01730136 0.0007268565   0.01730136 0.0007268565 4.605583e-06    620.5878    999.8053  65.8158965  -1.3383648  65.8158965  -1.3383648
       284  0.001619786 0.0001189598  0.008509443 0.0004807704  0.008509443 0.0004807704 2.207709e-06    716.1937    987.9293  65.8148339  -1.3384968  65.8148339  -1.3384968
       285 0.0004266854 6.143059e-05  0.003334169 0.0002677697  0.003334169 0.0002677697 -8.112534e-06   1147.5037    994.5023  65.8100403  -1.3384237  65.8100403  -1.3384237
       286  0.007232548 0.0002418525   0.01887469 0.0008097428   0.01887469 0.0008097428 3.734875e-06    649.1765   1081.7012  65.8155788  -1.3374548  65.8155788  -1.3374548
       287 0.0009704758 9.214588e-05  0.005522152 0.0003786836  0.005522152 0.0003786836 -8.384704e-06   1161.6680    997.3358  65.8098829  -1.3383922  65.8098829  -1.3383922
       288  0.002569929 0.0001440675  0.005122584 0.0002569826  0.006800824 0.0006338537 2.484542e-06    654.6068   1087.1361  65.8155184  -1.3373945  65.8155184  -1.3373945
       289 0.0008027611 8.687597e-05   0.01102922 0.0003992988   0.01102922 0.0003992988 5.292218e-06    511.8736   1184.2515  65.8171048  -1.3363154  65.8171048  -1.3363154
       290  0.008487782 0.0002712701   0.02084661 0.0008616722   0.02084661 0.0008616722 7.849649e-06    553.6552   1158.5757  65.8166404  -1.3366007  65.8166404  -1.3366007
       291  0.001406322 0.0001064009  0.004619635 0.0003736677  0.004619635 0.0003736677 5.241851e-06    599.0659   1155.9155  65.8161357  -1.3366302  65.8161357  -1.3366302
       292  0.000735813 8.126503e-05  0.005859913 0.0003555552  0.005859913 0.0003555552 -2.624392e-06    402.1481   1174.5714  65.8183243  -1.3364230  65.8183243  -1.3364230
       293  0.002671672 0.0001440675  0.007714913 0.0004688486  0.007714913 0.0004688486 3.166644e-06    604.7390   1171.9186  65.8160727  -1.3364524  65.8160727  -1.3364524
       294  0.001450842 0.0001149261  0.008703574 0.0004177732  0.008703574 0.0004177732 -3.55171e-06    705.0021   1176.5150  65.8149583  -1.3364014  65.8149583  -1.3364014
       295 0.0003153788 5.320045e-05  0.002658454 0.0002128018  0.002658454 0.0002128018 -1.082867e-06    906.6699   1167.6626  65.8127170  -1.3364997  65.8127170  -1.3364997
       296   0.00298566 0.0001566179   0.01327109  0.000557971   0.01327109  0.000557971 4.739465e-06    593.5022   1164.6570  65.8161976  -1.3365331  65.8161976  -1.3365331
       297  0.001003547 9.214588e-05  0.005024349 0.0003515526  0.005024349 0.0003515526 -3.025271e-06    688.1151   1157.3195  65.8151460  -1.3366146  65.8151460  -1.3366146
       298  0.001097123 9.713029e-05  0.008739016 0.0004222655  0.008739016 0.0004222655 -3.463103e-06    697.2277   1155.7220  65.8150447  -1.3366324  65.8150447  -1.3366324
       299  0.001767981 0.0001228612  0.008230572  0.000472856  0.008230572  0.000472856 -3.682228e-06    792.6249   1156.9656  65.8139845  -1.3366186  65.8139845  -1.3366186
       300 0.0006287151  7.52368e-05  0.005285055 0.0003236057  0.005285055 0.0003236057 5.467931e-07   1005.8286   1128.8452  65.8116149  -1.3369310  65.8116149  -1.3369310
       301 0.0006362394  7.52368e-05  0.004640889 0.0003308138  0.004640889 0.0003308138  6.13332e-06    609.3231   1143.4906  65.8160217  -1.3367683  65.8160217  -1.3367683
       302  0.000486791 6.868149e-05  0.005779201 0.0003147381  0.005779201 0.0003147381 2.772936e-06    637.4028   1137.2051  65.8157096  -1.3368381  65.8157096  -1.3368381
       303 0.0007450007 8.126503e-05  0.005079599 0.0003461438  0.005079599 0.0003461438 2.325187e-06    455.0072   1146.2959  65.8177368  -1.3367371  65.8177368  -1.3367371
       304 0.0006927605 8.126503e-05  0.007627252 0.0003634283  0.007627252 0.0003634283 -2.349833e-06    845.5690   1137.8528  65.8133961  -1.3368309  65.8133961  -1.3368309
       305  0.000306731 5.320045e-05  0.003557175 0.0002257104  0.003557175 0.0002257104 -9.422213e-06   1231.6648   1099.6758  65.8091049  -1.3372551  65.8091049  -1.3372551
       306 0.0005331608 6.868149e-05  0.004070909 0.0002897675  0.004070909 0.0002897675 -3.540678e-07   1022.7974   1124.4067  65.8114263  -1.3369803  65.8114263  -1.3369803
       307  0.001319732 0.0001064009  0.004621348 0.0003308138  0.004621348 0.0003308138 -3.012902e-06    682.3010   1122.9911  65.8152106  -1.3369961  65.8152106  -1.3369961
       308  0.001680446 0.0001189598  0.006439562 0.0004387021  0.006439562 0.0004387021 8.570479e-06    563.9529   1122.8661  65.8165260  -1.3369975  65.8165260  -1.3369975
       309  0.001386713 0.0001107456  0.004800228 0.0003673015  0.004800228 0.0003673015  9.50555e-06    598.4254   1098.7325  65.8161428  -1.3372656  65.8161428  -1.3372656
       310  0.002342409 0.0001473054    0.0158632 0.0005638578    0.0158632 0.0005638578  3.57233e-06    938.0057   1097.3451  65.8123687  -1.3372810  65.8123687  -1.3372810
       311 0.0003045824 5.320045e-05  0.003618054 0.0002257104  0.003618054 0.0002257104 -2.104665e-06    839.6677   1100.6678  65.8134616  -1.3372441  65.8134616  -1.3372441
       312 0.0005022416 6.868149e-05  0.004627057 0.0003086849  0.004627057 0.0003086849 -5.123665e-06    748.6036   1102.8007  65.8144737  -1.3372204  65.8144737  -1.3372204
       313  0.001023918 9.214588e-05  0.004605361 0.0003542261  0.004605361 0.0003542261 6.556327e-06    507.4377   1102.2648  65.8171541  -1.3372264  65.8171541  -1.3372264
       314 0.0006264702  7.52368e-05  0.005208618 0.0003192027  0.005208618 0.0003192027 9.106013e-06    537.5014   1085.0282  65.8168200  -1.3374179  65.8168200  -1.3374179
       315 0.0007280643 8.126503e-05  0.005722336 0.0003378682  0.005722336 0.0003378682 -8.930765e-06   1228.0059   1005.0070  65.8091456  -1.3383070  65.8091456  -1.3383070
       316  0.003851371 0.0001842918   0.01676073 0.0007352449   0.01676073 0.0007352449 1.392343e-06    437.8693   1072.1166  65.8179273  -1.3375613  65.8179273  -1.3375613
       317  0.001433506 0.0001149261   0.01278216 0.0005018921   0.01278216 0.0005018921 9.753954e-06    545.2009   1083.9120  65.8167344  -1.3374303  65.8167344  -1.3374303
       318 0.0006195526  7.52368e-05  0.004948613 0.0003364692  0.004948613 0.0003364692 -3.062856e-07    377.5006   1096.0022  65.8185982  -1.3372959  65.8185982  -1.3372959
       319  0.005716923 0.0002060445  0.008801689  0.000362128  0.008801689  0.000362128 1.121524e-05    608.1351   1057.5215  65.8160349  -1.3377235  65.8160349  -1.3377235
       320  0.004300373 0.0001790994  0.007301695 0.0003040659  0.007301695 0.0003040659 1.103096e-05    590.8823   1058.4902  65.8162267  -1.3377127  65.8162267  -1.3377127
       321  0.002131686 0.0001338849   0.01226027 0.0005537278   0.01226027 0.0005537278 4.595268e-06    968.1602   1005.1464  65.8120336  -1.3383055  65.8120336  -1.3383055
       322  0.001319264 0.0001107456   0.01080269 0.0004817506   0.01080269 0.0004817506 -3.414116e-06   1110.4790   1076.6530  65.8104518  -1.3375109  65.8104518  -1.3375109
       323 0.0003200395 5.320045e-05   0.00260144 0.0002128018   0.00260144 0.0002128018 -9.806122e-07    744.3173   1026.3363  65.8145214  -1.3380700  65.8145214  -1.3380700
       324 0.0004095633 6.143059e-05  0.004238395 0.0002781388  0.004238395 0.0002781388 5.135227e-06    910.2491   1056.9977  65.8126772  -1.3377293  65.8126772  -1.3377293
       325  0.001478379 0.0001149261   0.00502002 0.0003711343   0.00502002 0.0003711343 8.197592e-06    609.0118   1029.2261  65.8160252  -1.3380379  65.8160252  -1.3380379
       326  0.001414949 0.0001149261  0.008764507  0.000472856  0.008764507  0.000472856 8.068643e-07    392.0760   1065.1635  65.8184362  -1.3376386  65.8184362  -1.3376386
       327 0.0005346822 6.868149e-05  0.004425386 0.0002913909  0.004425386 0.0002913909 5.725485e-06    955.2101   1062.5989  65.8121775  -1.3376671  65.8121775  -1.3376671
       328  0.001081708 0.0001018711  0.008653661 0.0004461654  0.008653661 0.0004461654 3.676763e-06    269.7194   1052.5424  65.8197961  -1.3377788  65.8197961  -1.3377788
       329  0.001463209 0.0001107456  0.005590376 0.0003921466  0.005590376 0.0003921466 1.172294e-06    692.6284   1029.6115  65.8150959  -1.3380336  65.8150959  -1.3380336
       330 0.0007632542 8.126503e-05  0.004177311 0.0003336535  0.004177311 0.0003336535 8.450246e-06    581.9923   1033.2999  65.8163255  -1.3379926  65.8163255  -1.3379926
       331  0.002130866  0.000137363   0.01431881 0.0005328904   0.01431881 0.0005328904 6.479247e-06    535.5234   1022.5101  65.8168419  -1.3381125  65.8168419  -1.3381125
       332 0.0007038637 8.126503e-05  0.007202375 0.0003647239  0.007202375 0.0003647239 -5.017691e-06    802.1433   1011.5656  65.8138787  -1.3382341  65.8138787  -1.3382341
       333 0.0003010689 5.320045e-05  0.003884262 0.0002257104  0.003884262 0.0002257104 -8.946546e-06   1236.3325   1009.3336  65.8090531  -1.3382589  65.8090531  -1.3382589
