#   1 NUMBER                 Running object number                                     
#   2 FLUX_ISO               Isophotal flux                                             [count]
#   3 FLUXERR_ISO            RMS error for isophotal flux                               [count]
#   4 FLUX_AUTO              Flux within a Kron-like elliptical aperture                [count]
#   5 FLUXERR_AUTO           RMS error for AUTO flux                                    [count]
#   6 FLUX_BEST              Best of FLUX_AUTO and FLUX_ISOCOR                          [count]
#   7 FLUXERR_BEST           RMS error for BEST flux                                    [count]
#   8 BACKGROUND             Background at centroid position                            [count]
#   9 X_IMAGE                Object position along x                                    [pixel]
#  10 Y_IMAGE                Object position along y                                    [pixel]
#  11 ALPHA_SKY              Right ascension of barycenter (native)                     [deg]
#  12 DELTA_SKY              Declination of barycenter (native)                         [deg]
#  13 ALPHA_J2000            Right ascension of barycenter (J2000)                      [deg]
#  14 DELTA_J2000            Declination of barycenter (J2000)                          [deg]
         1 0.0009127021 8.596782e-05  0.006459604 0.0003317165  0.006459604 0.0003317165 -4.691342e-06    345.6868      4.1068  65.8189518  -1.3494281  65.8189518  -1.3494281
         2  0.001699458 0.0001181515   0.01351182 0.0004182197   0.01351182 0.0004182197 -7.282326e-06     96.2989      3.2951  65.8217236  -1.3494371  65.8217236  -1.3494371
         3  0.000387348 5.731188e-05   0.00333273 0.0002498167   0.00333273 0.0002498167 -8.131568e-06    637.5072     14.5090  65.8157085  -1.3493125  65.8157085  -1.3493125
         4  0.001508979 0.0001146238  0.009620428 0.0005260531  0.009620428 0.0005260531 -3.835011e-06    161.1689     31.0381  65.8210026  -1.3491289  65.8210026  -1.3491289
         5 0.0006850407 7.581649e-05  0.005726513 0.0003317165  0.005726513 0.0003317165 -1.038615e-05    611.1506     39.2848  65.8160014  -1.3490373  65.8160014  -1.3490373
         6   0.00121647 9.926709e-05  0.005902265 0.0003567636  0.005902265 0.0003567636 -4.25795e-06   1145.3328     43.1182  65.8100644  -1.3489947  65.8100644  -1.3489947
         7 0.0004691641 6.407663e-05  0.005115451  0.000285123  0.005115451  0.000285123 1.005769e-06    818.3975     45.2079  65.8136980  -1.3489714  65.8136980  -1.3489714
         8   0.00232827 0.0001374291   0.01344721 0.0005586071   0.01344721 0.0005586071 2.940719e-06    734.4479     51.2843  65.8146311  -1.3489039  65.8146311  -1.3489039
         9  0.002045012  0.000131318  0.008577884 0.0004072774  0.008577884 0.0004072774 -3.028489e-06    421.5014     65.0157  65.8181092  -1.3487514  65.8181092  -1.3487514
        10  0.001371308  0.000110984   0.01038861 0.0004812151   0.01038861 0.0004812151 -2.544203e-06   1060.3416     59.5887  65.8110090  -1.3488116  65.8110090  -1.3488116
        11 0.0005533075 7.019243e-05  0.004251812 0.0002380341  0.004251812 0.0002380341 -5.542875e-06    506.9976     89.0000  65.8171590  -1.3484849  65.8171590  -1.3484849
        12  0.001240836 0.0001033205  0.006459277 0.0003190991  0.006459277 0.0003190991 1.003258e-06    856.0004     81.0118  65.8132801  -1.3485736  65.8132801  -1.3485736
        13 0.0002913916 4.963355e-05  0.003202725 0.0002105773  0.003202725 0.0002105773 -1.295887e-06    910.3354     69.3339  65.8126762  -1.3487034  65.8126762  -1.3487034
        14   0.00359393 0.0001719356   0.01918088 0.0006889355   0.01918088 0.0006889355 -5.313639e-06    552.3798     98.1251  65.8166546  -1.3483835  65.8166546  -1.3483835
        15  0.002187007  0.000131318   0.01550141 0.0005695255   0.01550141 0.0005695255 3.185921e-06    656.3267     83.3735  65.8154993  -1.3485474  65.8154993  -1.3485474
        16  0.004034583 0.0001789563   0.01027517 0.0005237064   0.01027517 0.0005237064 -5.314289e-06    549.8843    109.1312  65.8166823  -1.3482612  65.8166823  -1.3482612
        17 0.0008344626 8.105124e-05   0.00808236 0.0003521301   0.00808236 0.0003521301 -6.534739e-06     10.9778    104.5002  65.8226718  -1.3483126  65.8226718  -1.3483126
        18 0.0005866872 7.019243e-05  0.004796243  0.000293636  0.004796243  0.000293636 -2.849269e-07    965.0148    109.5025  65.8120685  -1.3482571  65.8120685  -1.3482571
        19 0.0008793667 8.596782e-05  0.004199618 0.0003390617  0.004199618 0.0003390617 2.032106e-06    328.5453    113.8881  65.8191423  -1.3482083  65.8191423  -1.3482083
        20 0.0007754979 8.105124e-05  0.007206821 0.0003613376  0.007206821 0.0003613376 2.958072e-06    237.9864    121.6329  65.8201488  -1.3481223  65.8201488  -1.3481223
        21 0.0002798369 4.963355e-05   0.00356264 0.0002105773   0.00356264 0.0002105773 -5.075902e-06    421.6704    133.6644  65.8181073  -1.3479886  65.8181073  -1.3479886
        22  0.000890207 8.596782e-05  0.006195115 0.0003509622  0.006195115 0.0003509622 -4.385378e-06    407.8944    140.6702  65.8182604  -1.3479107  65.8182604  -1.3479107
        23 0.0003136423 4.963355e-05  0.001828415  0.000194354  0.001828415  0.000194354 1.212074e-06    871.3215    139.3219  65.8131098  -1.3479257  65.8131098  -1.3479257
        24  0.001588074 0.0001146238   0.01398138 0.0004656039   0.01398138 0.0004656039 -4.60921e-06   1215.5198    177.2423  65.8092843  -1.3475044  65.8092843  -1.3475044
        25  0.001562295 0.0001146238  0.009288098 0.0004042418  0.009288098 0.0004042418 -5.420773e-06    518.3615    149.0864  65.8170327  -1.3478172  65.8170327  -1.3478172
        26  0.004998999 0.0001985342   0.01810717 0.0007317091   0.01810717 0.0007317091 -5.685222e-06    437.7775    169.0877  65.8179283  -1.3475950  65.8179283  -1.3475950
        27  0.000874579 8.596782e-05  0.007311785 0.0003725272  0.007311785 0.0003725272 -3.429646e-07    133.8931    162.3275  65.8213057  -1.3476701  65.8213057  -1.3476701
        28 0.0003714607 5.731188e-05  0.004826251 0.0002563065  0.004826251 0.0002563065 8.744452e-07   1072.5082    159.5016  65.8108738  -1.3477015  65.8108738  -1.3477015
        29  0.001330959 0.0001072207  0.008363348 0.0004411526  0.008363348 0.0004411526 -5.685222e-06    459.3588    169.0151  65.8176885  -1.3475958  65.8176885  -1.3475958
        30  0.002747356 0.0001489006  0.009818078 0.0006051766  0.009818078 0.0006051766 2.632097e-06    598.6830    168.2456  65.8161400  -1.3476044  65.8161400  -1.3476044
        31  0.001367158 0.0001072207   0.01127004 0.0004503634   0.01127004 0.0004503634 -5.531148e-06    449.4786    171.4989  65.8177983  -1.3475682  65.8177983  -1.3475682
        32  0.003565491 0.0001670914   0.01918375 0.0005629999   0.01918375 0.0005629999 -1.871458e-06   1159.1991    179.0084  65.8099103  -1.3474848  65.8099103  -1.3474848
        33  0.002759568  0.000151633   0.01583354 0.0006750892   0.01583354 0.0006750892 2.276458e-06    335.7619    193.7256  65.8190621  -1.3473212  65.8190621  -1.3473212
        34   0.00108012   9.5041e-05  0.006019079  0.000369206  0.006019079  0.000369206 -8.275821e-06      7.6382    183.0961  65.8227090  -1.3474393  65.8227090  -1.3474393
        35  0.001977709 0.0001249083   0.01313972 0.0005020926   0.01313972 0.0005020926 -1.193175e-06   1153.4093    191.4660  65.8099747  -1.3473463  65.8099747  -1.3473463
        36  0.002733342  0.000154317   0.01230978 0.0004307932   0.01230978 0.0004307932 6.949299e-06    692.0074    191.2621  65.8151028  -1.3473486  65.8151028  -1.3473486
        37  0.002446637 0.0001374291   0.01423919 0.0005571352   0.01423919 0.0005571352 6.048291e-06    706.0413    196.4498  65.8149468  -1.3472910  65.8149468  -1.3472910
        38 0.0009502043 8.596782e-05  0.006105612 0.0003450632  0.006105612 0.0003450632 7.365703e-06    662.9987    198.0181  65.8154252  -1.3472735  65.8154252  -1.3472735
        39 0.0005873893 7.019243e-05  0.004378258 0.0002894108  0.004378258 0.0002894108 2.075145e-06    593.9954    195.5009  65.8161921  -1.3473015  65.8161921  -1.3473015
        40 0.0006314706 7.019243e-05  0.002998415 0.0002688165  0.002998415 0.0002688165 5.076381e-06    630.5060    203.0383  65.8157863  -1.3472178  65.8157863  -1.3472178
        41  0.001119275 9.926709e-05  0.008058909 0.0004260012  0.008058909 0.0004260012 1.829893e-06    344.7474    212.7319  65.8189623  -1.3471101  65.8189623  -1.3471101
        42  0.001224747 9.926709e-05   0.01017724 0.0004307932   0.01017724 0.0004307932 2.387482e-06    266.5321    228.9821  65.8198316  -1.3469295  65.8198316  -1.3469295
        43  0.004763253 0.0002046443   0.03160157 0.0007521843   0.03160157 0.0007521843  1.30201e-06    270.8787    237.3141  65.8197833  -1.3468369  65.8197833  -1.3468369
        44  0.001546763  0.000110984  0.006902312 0.0004211546  0.006902312 0.0004211546 6.489191e-07    826.9529    234.3913  65.8136029  -1.3468694  65.8136029  -1.3468694
        45 0.0003812334 5.731188e-05  0.004261533 0.0002688165  0.004261533 0.0002688165 6.880154e-07   1055.2451    229.7555  65.8110657  -1.3469209  65.8110657  -1.3469209
        46 0.0003712934 5.731188e-05  0.004167908 0.0002563065  0.004167908 0.0002563065 9.892075e-07   1016.5010    233.4971  65.8114963  -1.3468793  65.8114963  -1.3468793
        47 0.0006809564 7.581649e-05  0.005687247 0.0003152154  0.005687247 0.0003152154 -1.017123e-05   1236.2775   1009.4341  65.8090537  -1.3382578  65.8090537  -1.3382578
        48 0.0006251619 7.019243e-05  0.003180731 0.0002397528  0.003180731 0.0002397528 -6.965248e-06     49.9909   1248.4969  65.8222382  -1.3356016  65.8222382  -1.3356016
        49 0.0002900565 4.963355e-05  0.003043848 0.0002086184  0.003043848 0.0002086184 -8.978694e-07    608.3219    964.3344  65.8160329  -1.3387589  65.8160329  -1.3387589
        50 0.0004622615 6.407663e-05  0.004665333 0.0002879886  0.004665333 0.0002879886 1.022134e-06    434.2013    958.4035  65.8179681  -1.3388248  65.8179681  -1.3388248
        51 0.0004793791 6.407663e-05  0.005040798 0.0002879886  0.005040798 0.0002879886  3.17681e-06    677.9938    956.0042  65.8152585  -1.3388515  65.8152585  -1.3388515
        52 0.0002878801 4.963355e-05  0.003351751 0.0002105773  0.003351751 0.0002105773 5.632391e-07    130.6653    955.6743  65.8213416  -1.3388551  65.8213416  -1.3388551
        53 0.0003906406 5.731188e-05  0.003420772 0.0002498167  0.003420772 0.0002498167 -3.907701e-06   1146.4976    942.5210  65.8100515  -1.3390013  65.8100515  -1.3390013
        54  0.001904079 0.0001281533  0.008975961 0.0003929105  0.008975961 0.0003929105 6.858231e-07    490.5572    934.5461  65.8173417  -1.3390899  65.8173417  -1.3390899
        55  0.002775986 0.0001489006   0.01283633 0.0005563977   0.01283633 0.0005563977 2.446485e-06    842.9147    927.9744  65.8134256  -1.3391629  65.8134256  -1.3391629
        56 0.0008916105 8.596782e-05  0.005715223 0.0003590579  0.005715223 0.0003590579 3.652716e-06    727.3367    926.4378  65.8147101  -1.3391800  65.8147101  -1.3391800
        57  0.003183908 0.0001621025   0.02142518 0.0006954602   0.02142518 0.0006954602 -7.348013e-07    373.9104    924.0457  65.8186381  -1.3392066  65.8186381  -1.3392066
        58  0.001108336   9.5041e-05  0.005985058 0.0003812425  0.005985058 0.0003812425 -7.787659e-07    327.6501    923.5320  65.8191523  -1.3392123  65.8191523  -1.3392123
        59   0.01170515 0.0003046168   0.04573177 0.0009057272   0.04573177 0.0009057272 -1.108732e-06    395.7093    916.2800  65.8183959  -1.3392929  65.8183959  -1.3392929
        60 0.0009162939 8.596782e-05  0.005542137 0.0003450632  0.005542137 0.0003450632 -6.650554e-06    600.9814    927.9999  65.8161144  -1.3391626  65.8161144  -1.3391626
        61 0.0005948951 7.019243e-05   0.00375271 0.0002807697   0.00375271 0.0002807697 1.842762e-06    710.4963    909.9958  65.8148973  -1.3393627  65.8148973  -1.3393627
        62 0.0002753215 4.963355e-05  0.004708848 0.0002380341  0.004708848 0.0002380341 -1.859709e-06   1104.0067    910.0000  65.8105237  -1.3393626  65.8105237  -1.3393626
        63  0.001611605 0.0001181515  0.006441031 0.0003758191  0.006441031 0.0003758191 2.247495e-06    825.7466    906.8740  65.8136164  -1.3393974  65.8136164  -1.3393974
        64 0.0004975158 6.407663e-05  0.004500424 0.0002718541  0.004500424 0.0002718541 8.970079e-07    720.6031    887.7933  65.8147849  -1.3396094  65.8147849  -1.3396094
        65 0.0004622442 6.407663e-05   0.00496392 0.0002879886   0.00496392 0.0002879886 -6.412771e-06    634.1978    886.5996  65.8157453  -1.3396226  65.8157453  -1.3396226
        66  0.001524759  0.000110984   0.01036676 0.0004699924   0.01036676 0.0004699924 -7.320239e-06    508.7829    868.6746  65.8171391  -1.3398218  65.8171391  -1.3398218
        67  0.001516311 0.0001146238  0.008812451 0.0004439359  0.008812451 0.0004439359 -6.293237e-06    447.5351    866.0089  65.8178199  -1.3398514  65.8178199  -1.3398514
        68 0.0003812578 5.731188e-05  0.002461333 0.0002363029  0.002461333 0.0002363029 -5.463249e-06    689.5021    863.4999  65.8151306  -1.3398793  65.8151306  -1.3398793
        69  0.001664977 0.0001181515   0.01033959 0.0004769299   0.01033959 0.0004769299 1.402373e-06    757.5928    860.4924  65.8143738  -1.3399127  65.8143738  -1.3399127
        70  0.000407356 5.731188e-05  0.003079349 0.0002498167  0.003079349 0.0002498167 -2.71562e-06    311.5048    859.5137  65.8193317  -1.3399236  65.8193317  -1.3399236
        71  0.002185251 0.0001344083   0.01233882 0.0005077845   0.01233882 0.0005077845 8.868461e-07    748.8507    854.1503  65.8144710  -1.3399832  65.8144710  -1.3399832
        72  0.001986236 0.0001249083  0.007846394 0.0004558006  0.007846394 0.0004558006 -7.675354e-06    490.4152    853.6049  65.8173433  -1.3399893  65.8173433  -1.3399893
        73  0.002219215 0.0001344083   0.01443032 0.0005563977   0.01443032 0.0005563977 -3.524247e-06    931.8583    845.8708  65.8124370  -1.3400752  65.8124370  -1.3400752
        74  0.000291624 4.963355e-05  0.002640566 0.0001985342  0.002640566 0.0001985342 -5.392258e-06    692.3387    855.3251  65.8150991  -1.3399701  65.8150991  -1.3399701
        75 0.0003842648 5.731188e-05  0.004139774 0.0002688165  0.004139774 0.0002688165 -5.88707e-06    352.4966    845.0000  65.8188761  -1.3400849  65.8188761  -1.3400849
        76 0.0002881553 4.963355e-05  0.003097183 0.0002086184  0.003097183 0.0002086184 -1.805815e-06   1053.3346    841.3244  65.8110869  -1.3401257  65.8110869  -1.3401257
        77  0.002034689 0.0001281533   0.01580644 0.0005213491   0.01580644 0.0005213491 3.627939e-06   1127.1621    839.8976  65.8102664  -1.3401415  65.8102664  -1.3401415
        78  0.000479312 6.407663e-05   0.00411887 0.0002748581   0.00411887 0.0002748581 -1.720976e-06   1043.8013    838.4046  65.8111929  -1.3401581  65.8111929  -1.3401581
        79  0.001519128  0.000110984  0.007016539 0.0003579126  0.007016539 0.0003579126 -8.045778e-06    620.9973    832.5137  65.8158920  -1.3402236  65.8158920  -1.3402236
        80 0.0009547098 9.061804e-05  0.009033615 0.0004042418  0.009033615 0.0004042418 -8.047408e-06    631.4890    831.6975  65.8157754  -1.3402327  65.8157754  -1.3402327
        81 0.0004799116 6.407663e-05   0.00402638 0.0002763479   0.00402638 0.0002763479 -8.087996e-06    575.1882    813.6061  65.8164011  -1.3404337  65.8164011  -1.3404337
        82  0.001201692 0.0001033205     0.010735 0.0004743402     0.010735 0.0004743402 2.903997e-06   1071.2352    803.7338  65.8108880  -1.3405434  65.8108880  -1.3405434
        83 0.0007424993 7.581649e-05  0.003164021 0.0002778296  0.003164021 0.0002778296 -7.677094e-06    616.0142    793.9824  65.8159474  -1.3406517  65.8159474  -1.3406517
        84  0.003749305 0.0001789563   0.02594586 0.0007175438   0.02594586 0.0007175438 1.318853e-06    195.8586    787.1267  65.8206170  -1.3407279  65.8206170  -1.3407279
        85  0.002000391 0.0001281533   0.01745803 0.0005615394   0.01745803 0.0005615394 -3.743495e-06    553.6973    776.9302  65.8166400  -1.3408412  65.8166400  -1.3408412
        86  0.003382733 0.0001670914   0.02518121 0.0007083294   0.02518121 0.0007083294 -2.916063e-06    558.0605    770.7736  65.8165915  -1.3409096  65.8165915  -1.3409096
        87  0.001133292   9.5041e-05  0.004602802 0.0003624722  0.004602802 0.0003624722 7.056335e-07    185.3539    762.4684  65.8207338  -1.3410019  65.8207338  -1.3410019
        88 0.0009834182 9.061804e-05  0.009035476 0.0003981011  0.009035476 0.0003981011 -4.074767e-06    738.5030    759.7968  65.8145860  -1.3410316  65.8145860  -1.3410316
        89  0.002564128 0.0001403849  0.005320648 0.0004062681  0.005320648 0.0004062681 -5.185902e-06    619.0737    751.6552  65.8159134  -1.3411220  65.8159134  -1.3411220
        90  0.006724298  0.000232802   0.03312841 0.0008165686   0.03312841 0.0008165686 -3.136834e-06    884.5815    745.7885  65.8129625  -1.3411872  65.8129625  -1.3411872
        91  0.001070214 9.061804e-05  0.004224082 0.0003341828  0.004224082 0.0003341828 -4.828449e-06    628.1730    743.9765  65.8158122  -1.3412073  65.8158122  -1.3412073
        92  0.003966103 0.0001719356   0.02492358 0.0006775176   0.02492358 0.0006775176 5.608111e-07    445.5031    742.9833  65.8178424  -1.3412184  65.8178424  -1.3412184
        93 0.0004881333 6.407663e-05  0.005059025 0.0002836793  0.005059025 0.0002836793 3.435167e-06    546.2073    742.5979  65.8167232  -1.3412227  65.8167232  -1.3412227
        94  0.003374663 0.0001569551   0.01038973 0.0005666345   0.01038973 0.0005666345 -4.579435e-06    655.9569    736.0370  65.8155034  -1.3412956  65.8155034  -1.3412956
        95  0.001143737   9.5041e-05  0.006832992  0.000374725  0.006832992  0.000374725 -3.33552e-06    811.9899    731.9915  65.8137693  -1.3413405  65.8137693  -1.3413405
        96  0.001500896  0.000110984  0.006626365 0.0004221284  0.006626365 0.0004221284 -3.067037e-06    866.7316    724.6799  65.8131608  -1.3414217  65.8131608  -1.3414217
        97 0.0003123292 4.963355e-05  0.002327154 0.0001985342  0.002327154 0.0001985342 -3.447479e-06    745.6677    722.6766  65.8145064  -1.3414440  65.8145064  -1.3414440
        98  0.002010858 0.0001281533   0.01359563 0.0004905107   0.01359563 0.0004905107 3.570532e-06    493.5838    713.1982  65.8173081  -1.3415493  65.8173081  -1.3415493
        99  0.001045529 9.061804e-05  0.004753831 0.0003544544  0.004753831 0.0003544544 1.909335e-06    659.1733    711.0217  65.8154677  -1.3415735  65.8154677  -1.3415735
       100 0.0002992628 4.963355e-05  0.002249208 0.0001985342  0.002249208 0.0001985342 -2.737409e-06    765.6732    709.3278  65.8142840  -1.3415923  65.8142840  -1.3415923
       101 0.0002989146 4.963355e-05  0.002120094 0.0001985342  0.002120094 0.0001985342 2.919574e-06    636.6689    706.6749  65.8157178  -1.3416218  65.8157178  -1.3416218
       102   0.00114956 9.926709e-05  0.007013788 0.0003981011  0.007013788 0.0003981011 6.970146e-06    544.2535    702.5878  65.8167449  -1.3416672  65.8167449  -1.3416672
       103 0.0005952006 7.019243e-05  0.003588768 0.0002836793  0.003588768 0.0002836793 1.793972e-08    212.8294    697.1721  65.8204284  -1.3417274  65.8204284  -1.3417274
       104  0.005969126 0.0002163476   0.01524533 0.0006503068   0.01524533 0.0006503068 7.009339e-06    673.0021    691.9337  65.8153140  -1.3417856  65.8153140  -1.3417856
       105 0.0004674996 6.407663e-05  0.004917495 0.0002879886  0.004917495 0.0002879886 1.447465e-06    368.2067    693.6013  65.8187015  -1.3417671  65.8187015  -1.3417671
       106   0.00125162 0.0001033205  0.009234716 0.0004476201  0.009234716 0.0004476201 4.082405e-06    473.1353    679.9327  65.8175353  -1.3419189  65.8175353  -1.3419189
       107  0.003454523 0.0001695308  0.008071504  0.000487151  0.008071504  0.000487151 1.163638e-05    649.2458    672.7594  65.8155780  -1.3419986  65.8155780  -1.3419986
       108  0.008450205 0.0002274495   0.01638424 0.0006310816   0.01638424 0.0006310816 1.139575e-05    637.3985    663.9652  65.8157097  -1.3420964  65.8157097  -1.3420964
       109  0.001492699 0.0001072207  0.009316082 0.0004402209  0.009316082 0.0004402209 1.010664e-05    591.7300    658.7619  65.8162173  -1.3421542  65.8162173  -1.3421542
       110 0.0008887952 8.596782e-05  0.003899442 0.0003178098  0.003899442 0.0003178098 2.303475e-06    350.9996    660.0039  65.8188928  -1.3421404  65.8188928  -1.3421404
       111  0.004610913 0.0001789563   0.01176267 0.0005593416   0.01176267 0.0005593416 1.161633e-05    648.2896    653.4131  65.8155886  -1.3422136  65.8155886  -1.3422136
       112  0.002512824 0.0001461172   0.02639076 0.0006628138   0.02639076 0.0006628138 1.185696e-05    660.2389    646.5270  65.8154558  -1.3422901  65.8154558  -1.3422901
       113  0.002268049 0.0001281533  0.005791431 0.0003790825  0.005791431 0.0003790825 1.109496e-05    621.5570    644.4034  65.8158858  -1.3423137  65.8158858  -1.3423137
       114   0.02068538 0.0003823179   0.05013142  0.001222504   0.05013142  0.001222504 1.009712e-05    597.3395    641.0861  65.8161549  -1.3423506  65.8161549  -1.3423506
       115   0.00323907 0.0001646158   0.02043559 0.0006458721   0.02043559 0.0006458721 3.307652e-06    492.2043    642.2739  65.8173234  -1.3423374  65.8173234  -1.3423374
       116  0.001494471 0.0001072207  0.007875303 0.0004448598  0.007875303 0.0004448598 6.485423e-06    537.7981    642.2104  65.8168167  -1.3423381  65.8168167  -1.3423381
       117 0.0004806767 6.407663e-05  0.004918352 0.0002879886  0.004918352 0.0002879886 4.819129e-06    276.2024    639.6076  65.8197241  -1.3423670  65.8197241  -1.3423670
       118 0.0005919787 7.019243e-05  0.005392235 0.0003046168  0.005392235 0.0003046168 2.044656e-06    481.8224    633.9969  65.8174388  -1.3424293  65.8174388  -1.3424293
       119   0.07538374 0.0004162516   0.03463165 0.0006683656   0.08290136 0.0008131773 1.115512e-05    625.1994    626.1876  65.8158453  -1.3425161  65.8158453  -1.3425161
       120   0.04018093 0.0004430101   0.03889389 0.0007411869    0.0571316  0.001373541 1.101809e-05    626.7111    607.5870  65.8158285  -1.3427228  65.8158285  -1.3427228
       121    0.0111096  0.000290826    0.0677089   0.00147599   0.03031326  0.001291216 8.649867e-06    579.1455    630.2083  65.8163571  -1.3424714  65.8163571  -1.3424714
       122   0.01348921  0.000293636  0.007100212 0.0005709656   0.02533708  0.001123452 1.006474e-05    599.2922    626.3813  65.8161332  -1.3425140  65.8161332  -1.3425140
       123   0.01375542 0.0003046168   0.03478032 0.0009645608   0.02825407  0.001218915 9.811488e-06    596.7714    617.8936  65.8161612  -1.3426083  65.8161612  -1.3426083
       124    0.0086076 0.0002380341   0.01236827 0.0004072774   0.01694042 0.0009331637 1.169654e-05    652.2159    628.5689  65.8155450  -1.3424897  65.8155450  -1.3424897
       125   0.02949468 0.0004673642   0.06614452  0.001630621   0.06614452  0.001630621 1.193717e-05    664.1522    621.8423  65.8154123  -1.3425644  65.8154123  -1.3425644
       126 0.0003822027 5.731188e-05  0.003091631 0.0002498167  0.003091631 0.0002498167 3.609761e-06    362.5005    609.4960  65.8187650  -1.3427016  65.8187650  -1.3427016
       127  0.002709385 0.0001489006   0.01907365 0.0006689797   0.01907365 0.0006689797 1.279374e-06    984.3512    616.1506  65.8118536  -1.3426276  65.8118536  -1.3426276
       128 0.0007531522 8.105124e-05  0.006022016 0.0003601996  0.006022016 0.0003601996 -3.820976e-06     44.3776    613.3755  65.8223006  -1.3426585  65.8223006  -1.3426585
       129 0.0003785045 5.731188e-05  0.004720132 0.0002563065  0.004720132 0.0002563065 -7.283896e-07    797.5076    605.4998  65.8139302  -1.3427460  65.8139302  -1.3427460
       130   0.00390965 0.0001812361   0.03713078 0.0009232373   0.03713078 0.0009232373 7.291602e-06    587.4066    598.8978  65.8162653  -1.3428193  65.8162653  -1.3428193
       131  0.006627724  0.000221968   0.01699663 0.0006984059   0.01699663 0.0006984059 6.986646e-06    707.8303    598.0212  65.8149269  -1.3428291  65.8149269  -1.3428291
       132  0.002602203 0.0001432797     0.010001 0.0005166023     0.010001 0.0005166023 9.829942e-06    651.4429    598.8935  65.8155536  -1.3428194  65.8155536  -1.3428194
       133  0.004648243 0.0001789563   0.01830382 0.0006323815   0.01830382 0.0006323815 8.537778e-06    601.7822    598.5245  65.8161055  -1.3428235  65.8161055  -1.3428235
       134 0.0005766113 7.019243e-05  0.004799689 0.0002978013  0.004799689 0.0002978013 1.634662e-06    383.9873    600.5010  65.8185261  -1.3428015  65.8185261  -1.3428015
       135 0.0002944468 4.963355e-05  0.002255018 0.0001985342  0.002255018 0.0001985342 3.502052e-06    542.3258    598.3271  65.8167663  -1.3428257  65.8167663  -1.3428257
       136   0.01193813 0.0002978013   0.03041173 0.0009755654   0.03036743  0.001294131 7.431951e-06    611.4430    588.9518  65.8159982  -1.3429298  65.8159982  -1.3429298
       137  0.002117198 0.0001281533    0.0117927 0.0004963354    0.0117927 0.0004963354 1.057448e-06   1132.8838    585.6949  65.8102028  -1.3429660  65.8102028  -1.3429660
       138  0.003909765 0.0001812361   0.02021837 0.0007646359   0.02021837 0.0007646359 1.148722e-06   1145.5212    589.2011  65.8100623  -1.3429271  65.8100623  -1.3429271
       139  0.001684991 0.0001181515  0.008153056  0.000415264  0.008153056  0.000415264 -3.50792e-08    865.6762    575.2357  65.8131726  -1.3430822  65.8131726  -1.3430822
       140   0.00365843 0.0001719356   0.02245946 0.0007805785   0.02245946 0.0007805785 3.009334e-06    578.2038    573.3028  65.8163676  -1.3431037  65.8163676  -1.3431037
       141  0.002359611 0.0001374291    0.0161036 0.0006584634    0.0161036 0.0006584634 2.660256e-06    581.8774    569.2587  65.8163268  -1.3431487  65.8163268  -1.3431487
       142   0.00229901 0.0001403849   0.01811568 0.0006708184   0.01811568 0.0006708184 4.976291e-06    644.5502    572.5693  65.8156302  -1.3431119  65.8156302  -1.3431119
       143  0.001203158 9.926709e-05  0.008927812 0.0004288828  0.008927812 0.0004288828  2.71772e-06    670.0697    560.2504  65.8153466  -1.3432487  65.8153466  -1.3432487
       144 0.0006022787 7.019243e-05  0.004704589 0.0002865594  0.004704589 0.0002865594 4.846116e-06    228.9838    560.5024  65.8202489  -1.3432459  65.8202489  -1.3432459
       145 0.0002712952 4.963355e-05  0.003382511 0.0002105773  0.003382511 0.0002105773 2.629336e-06    814.6672    559.3286  65.8137395  -1.3432590  65.8137395  -1.3432590
       146 0.0008605479 8.596782e-05  0.009557615 0.0003855262  0.009557615 0.0003855262 -1.792752e-06    384.8913    558.8766  65.8185161  -1.3432640  65.8185161  -1.3432640
       147 0.0003908524 5.731188e-05  0.003819493 0.0002498167  0.003819493 0.0002498167 4.781587e-06    255.5021    559.5042  65.8199541  -1.3432570  65.8199541  -1.3432570
       148  0.001214518 0.0001033205  0.008260664 0.0004383516  0.008260664 0.0004383516 2.004933e-06    674.0013    556.3065  65.8153029  -1.3432926  65.8153029  -1.3432926
       149   0.00368059 0.0001670914   0.01387025  0.000623884   0.01387025  0.000623884 8.988563e-07    615.1305    550.7520  65.8159572  -1.3433543  65.8159572  -1.3433543
       150 0.0004106381 5.731188e-05   0.00302691 0.0002363029   0.00302691 0.0002363029 -3.46046e-06    488.5030    553.4892  65.8173645  -1.3433239  65.8173645  -1.3433239
       151  0.001023442 9.061804e-05  0.009561826 0.0003844598  0.009561826 0.0003844598 4.311689e-06    753.7820    551.9998  65.8144162  -1.3433404  65.8144162  -1.3433404
       152   0.00139345 0.0001072207  0.004505119  0.000380164  0.004505119  0.000380164 -2.222576e-07    638.1248    544.2159  65.8157016  -1.3434269  65.8157016  -1.3434269
       153  0.002021699  0.000131318  0.009912144   0.00047779  0.009912144   0.00047779 1.212335e-06    862.5208    543.8263  65.8132076  -1.3434312  65.8132076  -1.3434312
       154  0.001094905   9.5041e-05  0.008359549 0.0004122872  0.008359549 0.0004122872 1.008033e-06    695.1876    540.4760  65.8150674  -1.3434685  65.8150674  -1.3434685
       155  0.001342152 0.0001033205  0.004703862 0.0003601996  0.004703862 0.0003601996  3.37251e-06    754.8323    531.6854  65.8144045  -1.3435661  65.8144045  -1.3435661
       156 0.0005868672 7.019243e-05  0.003974424 0.0002922344  0.003974424 0.0002922344 -3.089477e-06    365.1797    523.1665  65.8187352  -1.3436608  65.8187352  -1.3436608
       157 0.0003554583 5.731188e-05   0.00567222 0.0002688165   0.00567222 0.0002688165 -1.544043e-07    895.4993    517.4985  65.8128411  -1.3437238  65.8128411  -1.3437238
       158   0.00686715 0.0002201105   0.01032286 0.0003790825   0.01032286 0.0003790825 -2.725019e-06    592.5607    514.2718  65.8162080  -1.3437596  65.8162080  -1.3437596
       159 0.0002781385 4.963355e-05   0.00256343 0.0001985342   0.00256343 0.0001985342 2.729082e-06    788.6655    512.3321  65.8140285  -1.3437812  65.8140285  -1.3437812
       160  0.001307718 9.926709e-05  0.007817686 0.0004032248  0.007817686 0.0004032248 -3.710178e-06    621.0620    501.1894  65.8158913  -1.3439050  65.8158913  -1.3439050
       161 0.0003769412 5.731188e-05  0.003814367 0.0002530824  0.003814367 0.0002530824  2.22094e-06    116.0005    500.5038  65.8215046  -1.3439126  65.8215046  -1.3439126
       162  0.001254118 9.926709e-05  0.004267497 0.0002778296  0.004267497 0.0002778296 -4.511995e-06    632.9806    491.4856  65.8157588  -1.3440128  65.8157588  -1.3440128
       163 0.0007818765 8.105124e-05  0.005040163 0.0003474348  0.005040163 0.0003474348 -4.076402e-06    557.1347    490.5023  65.8166018  -1.3440237  65.8166018  -1.3440237
       164  0.001215472 9.926709e-05   0.01035865 0.0004355326   0.01035865 0.0004355326 -4.206997e-06    685.5013    486.2628  65.8151751  -1.3440708  65.8151751  -1.3440708
       165 0.0007224315 8.105124e-05  0.009472409 0.0003833903  0.009472409 0.0003833903 1.809006e-06   1114.2523    481.9986  65.8104099  -1.3441182  65.8104099  -1.3441182
       166  0.004824221 0.0002005916   0.02484507 0.0007811044   0.02484507 0.0007811044 -5.255824e-06    350.1750    479.8717  65.8189019  -1.3441418  65.8189019  -1.3441418
       167  0.001802343 0.0001181515  0.007142592 0.0004250363  0.007142592 0.0004250363 -4.373345e-06    443.4664    479.6106  65.8178651  -1.3441447  65.8178651  -1.3441447
       168  0.003829945 0.0001766471   0.02016686 0.0006452361   0.02016686 0.0006452361 -4.072869e-06    701.5277    476.9428  65.8149969  -1.3441744  65.8149969  -1.3441744
       169 0.0003635868 5.731188e-05  0.004517484 0.0002563065  0.004517484 0.0002563065 -3.707278e-06     59.5065    478.4994  65.8221325  -1.3441571  65.8221325  -1.3441571
       170 0.0007383466 7.581649e-05  0.005304596 0.0003190991  0.005304596 0.0003190991 -1.401642e-07   1054.9917    477.2905  65.8110685  -1.3441705  65.8110685  -1.3441705
       171  0.004208108 0.0001789563   0.03165459 0.0008049209   0.03165459 0.0008049209 -2.70411e-07   1050.8717    460.5150  65.8111143  -1.3443569  65.8111143  -1.3443569
       172 0.0005626794 7.019243e-05  0.005315296 0.0003019091  0.005315296 0.0003019091 8.272588e-07   1081.8269    458.1651  65.8107702  -1.3443830  65.8107702  -1.3443830
       173 0.0004082811 5.731188e-05  0.002296836 0.0002363029  0.002296836 0.0002363029 -6.941785e-06    628.4973    458.4921  65.8158086  -1.3443794  65.8158086  -1.3443794
       174 0.0002748941 4.963355e-05  0.003549557 0.0002105773  0.003549557 0.0002105773 9.145306e-07   1151.3303    457.3340  65.8099978  -1.3443923  65.8099978  -1.3443923
       175  0.002286964 0.0001344083  0.009185927 0.0004905107  0.009185927 0.0004905107 3.403343e-06    181.2512    452.6653  65.8207794  -1.3444441  65.8207794  -1.3444441
       176  0.003445962 0.0001621025   0.01947389 0.0006732622   0.01947389 0.0006732622 -2.708062e-06    890.8522    436.6522  65.8128928  -1.3446221  65.8128928  -1.3446221
       177 0.0005822784 7.019243e-05  0.006413592 0.0003254689  0.006413592 0.0003254689 3.780539e-06    155.3349    436.3376  65.8210674  -1.3446255  65.8210674  -1.3446255
       178  0.003492231 0.0001719356   0.02094775 0.0008115249   0.02094775 0.0008115249 -5.888347e-08   1053.4744    420.3622  65.8110854  -1.3448031  65.8110854  -1.3448031
       179 0.0004804422 6.407663e-05  0.004196298 0.0002718541  0.004196298 0.0002718541 2.096307e-06    488.2012    420.5978  65.8173679  -1.3448004  65.8173679  -1.3448004
       180 0.0009468428 8.596782e-05   0.00456847 0.0003366311   0.00456847 0.0003366311 -9.681604e-06    630.6766    418.5747  65.8157844  -1.3448229  65.8157844  -1.3448229
       181 0.0003759199 5.731188e-05  0.004155673 0.0002657443  0.004155673 0.0002657443 -6.992164e-06    324.2504    414.0012  65.8191901  -1.3448737  65.8191901  -1.3448737
       182 0.0006819593 7.581649e-05  0.005435311 0.0003341828  0.005435311 0.0003341828 -3.090329e-06    847.2881    413.1509  65.8133769  -1.3448832  65.8133769  -1.3448832
       183 0.0004727609 6.407663e-05   0.00602907 0.0002894108   0.00602907 0.0002894108 -7.041071e-06    295.2018    413.6003  65.8195129  -1.3448782  65.8195129  -1.3448782
       184  0.004484255 0.0001985342   0.02348734 0.0006793332   0.02348734 0.0006793332 3.766031e-07   1075.3617    410.0530  65.8108421  -1.3449176  65.8108421  -1.3449176
       185 0.0004862202 6.407663e-05  0.004370635 0.0002733603  0.004370635 0.0002733603 -6.070898e-06    270.4065    403.8062  65.8197885  -1.3449870  65.8197885  -1.3449870
       186 0.0004646211 6.407663e-05  0.005000636 0.0002879886  0.005000636 0.0002879886 -6.579796e-07    192.6019    404.1963  65.8206532  -1.3449827  65.8206532  -1.3449827
       187  0.001138373 9.926709e-05   0.01080047 0.0004326952   0.01080047 0.0004326952 -3.122922e-07   1008.4985    400.4931  65.8115852  -1.3450238  65.8115852  -1.3450238
       188  0.001112396   9.5041e-05  0.004566041  0.000369206  0.004566041  0.000369206 -9.148664e-06    606.8273    394.4719  65.8160495  -1.3450907  65.8160495  -1.3450907
       189 0.0003004771 4.963355e-05  0.002536965 0.0001985342  0.002536965 0.0001985342 -4.467933e-06    226.6656    395.6766  65.8202746  -1.3450773  65.8202746  -1.3450773
       190 0.0006617975 7.581649e-05  0.006633773 0.0003544544  0.006633773 0.0003544544 -3.15047e-06    395.4369    393.4504  65.8183989  -1.3451021  65.8183989  -1.3451021
       191  0.001277762 0.0001033205   0.01091947 0.0004512742   0.01091947 0.0004512742 -3.649565e-07   1006.8461    391.4593  65.8116036  -1.3451242  65.8116036  -1.3451242
       192  0.000942852 9.061804e-05  0.006546856 0.0003833903  0.006546856 0.0003833903 2.388668e-06    495.9992    381.8175  65.8172812  -1.3452313  65.8172812  -1.3452313
       193  0.001793582 0.0001215769   0.01050421 0.0004905107   0.01050421 0.0004905107 -7.269821e-06    700.7255    355.8819  65.8150059  -1.3455195  65.8150059  -1.3455195
       194   0.00058592 7.019243e-05  0.004205141 0.0002836793  0.004205141 0.0002836793 -1.912583e-06   1151.0134    352.4947  65.8100013  -1.3455571  65.8100013  -1.3455571
       195 0.0004756885 6.407663e-05  0.005083741 0.0002879886  0.005083741 0.0002879886 -8.117036e-07   1015.2076    347.5974  65.8115107  -1.3456116  65.8115107  -1.3456116
       196  0.001037032 9.061804e-05  0.004467746 0.0003509622  0.004467746 0.0003509622 -8.000253e-06    647.0238    343.4742  65.8156027  -1.3456574  65.8156027  -1.3456574
       197  0.001172928 9.926709e-05  0.008372685 0.0003669751  0.008372685 0.0003669751 2.346012e-06    507.4995    340.9943  65.8171534  -1.3456849  65.8171534  -1.3456849
       198 0.0007503023 8.105124e-05  0.009806259 0.0003844598  0.009806259 0.0003844598 -3.511106e-06    372.4951    335.9939  65.8186539  -1.3457405  65.8186539  -1.3457405
       199 0.0008680465 8.596782e-05  0.008260586 0.0003758191  0.008260586 0.0003758191 -1.40087e-06    959.6655    334.8852  65.8121280  -1.3457528  65.8121280  -1.3457528
       200  0.001146654 9.926709e-05   0.01002523 0.0004260012   0.01002523 0.0004260012 2.123146e-06    520.5051    339.5036  65.8170089  -1.3457015  65.8170089  -1.3457015
       201 0.0003846287 5.731188e-05  0.004661526 0.0002688165  0.004661526 0.0002688165 -6.575091e-06    316.9911    334.7581  65.8192708  -1.3457542  65.8192708  -1.3457542
       202  0.002011621 0.0001281533   0.01463373 0.0005578716   0.01463373 0.0005578716 -1.417664e-06    785.5942    331.0979  65.8140626  -1.3457949  65.8140626  -1.3457949
       203  0.002085344 0.0001344083   0.01201051 0.0004699924   0.01201051 0.0004699924 -3.057334e-07    407.0795    329.8627  65.8182695  -1.3458086  65.8182695  -1.3458086
       204  0.001137073   9.5041e-05  0.006955987 0.0003887081  0.006955987 0.0003887081 -1.632487e-06    952.5059    328.1023  65.8122075  -1.3458282  65.8122075  -1.3458282
       205 0.0006056018 7.019243e-05  0.005160472 0.0002978013  0.005160472 0.0002978013 -2.109129e-06    389.4991    326.5000  65.8184649  -1.3458460  65.8184649  -1.3458460
       206 0.0003753555 5.731188e-05  0.005146712 0.0002718541  0.005146712 0.0002718541 1.771065e-06    543.9916    324.7527  65.8167478  -1.3458654  65.8167478  -1.3458654
       207  0.000354873 5.731188e-05  0.005583813 0.0002807697  0.005583813 0.0002807697 -2.147861e-06    751.2491    319.9971  65.8144443  -1.3459182  65.8144443  -1.3459182
       208 0.0007964999 8.105124e-05  0.004899103 0.0003304764  0.004899103 0.0003304764 -4.607286e-06    587.1495    296.8917  65.8162682  -1.3461750  65.8162682  -1.3461750
       209 0.0007680958 8.105124e-05  0.007490918 0.0003669751  0.007490918 0.0003669751 -5.91265e-06    332.5149    294.4998  65.8190982  -1.3462015  65.8190982  -1.3462015
       210  0.001252806 9.926709e-05   0.00608639  0.000380164   0.00608639  0.000380164 -6.439074e-06    259.8371    294.0836  65.8199060  -1.3462062  65.8199060  -1.3462062
       211  0.001123059   9.5041e-05  0.004681628 0.0003497903  0.004681628 0.0003497903 -6.213736e-06    618.0089    284.9909  65.8159252  -1.3463072  65.8159252  -1.3463072
       212  0.001070358   9.5041e-05  0.003964306  0.000300546  0.003964306  0.000300546 -1.631527e-06   1075.9971    283.1784  65.8108350  -1.3463273  65.8108350  -1.3463273
       213  0.001316896 0.0001033205  0.007066245 0.0004062681  0.007066245 0.0004062681 3.802474e-07    706.9758    279.1591  65.8149364  -1.3463720  65.8149364  -1.3463720
       214  0.001730913 0.0001215769    0.0108044 0.0005260531    0.0108044 0.0005260531 6.953885e-07    470.3142    275.8712  65.8175667  -1.3464085  65.8175667  -1.3464085
       215 0.0002942918 4.963355e-05  0.003706929  0.000234559  0.003706929  0.000234559  4.70569e-08    451.9908    278.0000  65.8177703  -1.3463849  65.8177703  -1.3463849
       216  0.001807995 0.0001249083   0.01846064 0.0005406792   0.01846064 0.0005406792 4.250753e-07    549.0171    268.3589  65.8166920  -1.3464920  65.8166920  -1.3464920
       217   0.00182853 0.0001146238  0.009190041 0.0004629509  0.009190041 0.0004629509  4.12379e-07    630.1095    251.7228  65.8157907  -1.3466768  65.8157907  -1.3466768
       218 0.0008004852 8.105124e-05  0.005769548 0.0003354092  0.005769548 0.0003354092 -1.204259e-05     21.2416    251.8828  65.8225578  -1.3466750  65.8225578  -1.3466750
       219 0.0004657914 6.407663e-05  0.004476235 0.0002879886  0.004476235 0.0002879886 -9.161598e-06     47.1981    250.4052  65.8222693  -1.3466915  65.8222693  -1.3466915
       220  0.001418445  0.000110984   0.01272607 0.0004930155   0.01272607 0.0004930155 -4.537181e-07    467.4106    248.6058  65.8175990  -1.3467115  65.8175990  -1.3467115
       221  0.001800818 0.0001249083   0.01236546 0.0004567005   0.01236546 0.0004567005 -8.40829e-07   1166.1490   1238.4495  65.8098331  -1.3357132  65.8098331  -1.3357132
       222  0.003086908 0.0001595495   0.01722833 0.0005291659   0.01722833 0.0005291659 -9.800677e-07    578.2176   1233.0333  65.8163674  -1.3357734  65.8163674  -1.3357734
       223  0.001111514 9.926709e-05  0.006590326 0.0003125994  0.006590326 0.0003125994 4.231897e-07    908.8423    973.1656  65.8126928  -1.3386608  65.8126928  -1.3386608
       224  0.001481551 0.0001072207   0.01244739 0.0004593897   0.01244739 0.0004593897 -1.353028e-06    587.2642   1229.8696  65.8162669  -1.3358085  65.8162669  -1.3358085
       225 0.0002820506 4.963355e-05  0.003332099 0.0002105773  0.003332099 0.0002105773 9.195198e-07   1017.3334    979.6699  65.8114870  -1.3385885  65.8114870  -1.3385885
       226  0.000480506 6.407663e-05  0.004400352 0.0002718541  0.004400352 0.0002718541 5.770731e-07    602.2063   1212.6041  65.8161008  -1.3360004  65.8161008  -1.3360004
       227  0.001580126 0.0001146238    0.0121953 0.0004921819    0.0121953 0.0004921819 -2.965941e-06   1101.9346   1208.4167  65.8105468  -1.3360469  65.8105468  -1.3360469
       228  0.000283839 4.963355e-05   0.00297391 0.0002105773   0.00297391 0.0002105773 -3.879456e-06    107.3347   1206.3304  65.8216009  -1.3360701  65.8216009  -1.3360701
       229 0.0004853526 6.407663e-05  0.003211196 0.0002641947  0.003211196 0.0002641947 1.059685e-06    840.4028    984.8023  65.8134535  -1.3385315  65.8134535  -1.3385315
       230 0.0003875487 5.731188e-05  0.004169489 0.0002514549  0.004169489 0.0002514549 -4.007085e-06    199.4976   1188.4990  65.8205766  -1.3362682  65.8205766  -1.3362682
       231  0.002255685 0.0001344083    0.0108867  0.000515807    0.0108867  0.000515807 -7.93989e-06   1128.1666    982.9900  65.8102552  -1.3385516  65.8102552  -1.3385516
       232 0.0006015448 7.019243e-05  0.003458525 0.0002748581  0.003458525 0.0002748581 -9.098992e-06   1147.9794    994.5057  65.8100350  -1.3384237  65.8100350  -1.3384237
       233  0.002666571 0.0001461172     0.015659 0.0005830621     0.015659 0.0005830621 2.322386e-06    715.8226    987.7166  65.8148381  -1.3384991  65.8148381  -1.3384991
       234  0.000766877 8.105124e-05   0.00955236 0.0003714234   0.00955236 0.0003714234 6.164852e-06    510.7396   1184.6344  65.8171174  -1.3363111  65.8171174  -1.3363111
       235 0.0002993874 4.963355e-05  0.002917972 0.0002026281  0.002917972 0.0002026281 2.594062e-06    199.6597    995.6830  65.8205748  -1.3384106  65.8205748  -1.3384106
       236 0.0003796678 5.731188e-05  0.003762247 0.0002498167  0.003762247 0.0002498167 -1.220574e-07    793.4877   1156.4999  65.8139749  -1.3366238  65.8139749  -1.3366238
       237 0.0002903733 4.963355e-05  0.002653553 0.0001985342  0.002653553 0.0001985342 3.736164e-06    955.3330   1062.6753  65.8121761  -1.3376662  65.8121761  -1.3376662
       238  0.001366641 0.0001033205  0.006589229 0.0004211546  0.006589229 0.0004211546 4.433875e-06    620.9871    999.8490  65.8158921  -1.3383643  65.8158921  -1.3383643
       239  0.000589569 7.019243e-05  0.004440185  0.000300546  0.004440185  0.000300546 -9.235875e-06   1161.8109    997.1802  65.8098813  -1.3383940  65.8098813  -1.3383940
       240  0.001317325 0.0001033205  0.008368231 0.0004288828  0.008368231 0.0004288828 -7.326624e-07    402.2178   1174.8463  65.8183235  -1.3364199  65.8183235  -1.3364199
       241 0.0009910496 9.061804e-05  0.008367655  0.000393954  0.008367655  0.000393954 6.115456e-06    594.5117   1164.4918  65.8161863  -1.3365350  65.8161863  -1.3365350
       242 0.0006831214 7.581649e-05  0.006618462 0.0003279822  0.006618462 0.0003279822 3.799793e-06    910.0025   1057.2916  65.8126799  -1.3377261  65.8126799  -1.3377261
       243  0.003466316 0.0001646158   0.00984653  0.000497162   0.00984653  0.000497162 6.203792e-06    547.0218   1150.6089  65.8167141  -1.3366892  65.8167141  -1.3366892
       244 0.0004000229 5.731188e-05  0.004044358 0.0002530824  0.004044358 0.0002530824 6.156019e-06    596.4979   1094.0015  65.8161643  -1.3373182  65.8161643  -1.3373182
       245  0.003145996  0.000154317  0.008799293 0.0005166023  0.008799293 0.0005166023 3.446462e-06    639.2791   1081.7128  65.8156888  -1.3374547  65.8156888  -1.3374547
       246  0.001436666  0.000110984   0.01256698 0.0004863074   0.01256698 0.0004863074 1.670081e-06    938.3467   1097.5297  65.8123649  -1.3372790  65.8123649  -1.3372790
       247 0.0007786854 8.105124e-05  0.004983446 0.0003366311  0.004983446 0.0003366311 1.524105e-07   1022.6274   1124.7389  65.8114282  -1.3369766  65.8114282  -1.3369766
       248 0.0003889117 5.731188e-05  0.003595136 0.0002594906  0.003595136 0.0002594906 -1.162117e-07     82.9945   1121.2531  65.8218714  -1.3370154  65.8218714  -1.3370154
       249 0.0008209537 8.105124e-05  0.004417675 0.0003292317  0.004417675 0.0003292317  6.18158e-06    507.4915   1102.5403  65.8171535  -1.3372233  65.8171535  -1.3372233
       250 0.0002938121 4.963355e-05  0.003264334 0.0002105773  0.003264334 0.0002105773 -9.206424e-06   1231.6625   1099.6788  65.8091050  -1.3372551  65.8091050  -1.3372551
       251 0.0004824617 6.407663e-05  0.004222215 0.0002763479  0.004222215 0.0002763479 6.770277e-07    839.8128   1100.3937  65.8134600  -1.3372472  65.8134600  -1.3372472
       252  0.005278998 0.0002046444   0.01374041 0.0006646696   0.01374041 0.0006646696  2.63761e-06    648.3418   1081.7595  65.8155881  -1.3374542  65.8155881  -1.3374542
       253  0.001916616 0.0001281533   0.01215857  0.000551208   0.01215857  0.000551208 2.617714e-06    437.7700   1072.3029  65.8179284  -1.3375593  65.8179284  -1.3375593
       254  0.001270922 0.0001072207   0.01004831 0.0004879931   0.01004831 0.0004879931 3.819727e-07    392.2846   1064.8552  65.8184339  -1.3376420  65.8184339  -1.3376420
       255  0.005415565 0.0002144414   0.02722677 0.0007721168   0.02722677 0.0007721168 5.696406e-06    544.6035   1083.8669  65.8167410  -1.3374308  65.8167410  -1.3374308
       256 0.0003750481 5.731188e-05  0.004487519 0.0002563065  0.004487519 0.0002563065 -8.959231e-07   1111.4943   1078.5010  65.8104405  -1.3374904  65.8104405  -1.3374904
       257 0.0003942641 5.731188e-05  0.003995912 0.0002514549  0.003995912 0.0002514549 5.290747e-06    556.4851   1055.4945  65.8166090  -1.3377460  65.8166090  -1.3377460
       258   0.00392112 0.0001743073   0.01247472 0.0005314885   0.01247472 0.0005314885 5.793724e-06    593.1623   1058.5535  65.8162013  -1.3377120  65.8162013  -1.3377120
       259 0.0002852503 4.963355e-05  0.003137506 0.0002105773  0.003137506 0.0002105773 -9.078433e-06   1169.3342   1005.3301  65.8097977  -1.3383034  65.8097977  -1.3383034
       260  0.002069126 0.0001281533  0.009523282 0.0004938475  0.009523282 0.0004938475 1.304701e-06    268.9463   1052.2596  65.8198047  -1.3377820  65.8198047  -1.3377820
       261 0.0009040955 8.596782e-05  0.006071038 0.0003544544  0.006071038 0.0003544544 -1.008649e-05   1228.3285   1005.1107  65.8091420  -1.3383058  65.8091420  -1.3383058
       262 0.0005819028 7.019243e-05  0.003780047 0.0002865594  0.003780047 0.0002865594 5.235823e-06    581.8477   1033.1697  65.8163271  -1.3379941  65.8163271  -1.3379941
       263  0.002383576 0.0001344083   0.01429367 0.0005666345   0.01429367 0.0005666345 2.163066e-06    967.8986   1005.0978  65.8120365  -1.3383060  65.8120365  -1.3383060
       264 0.0003787217 5.731188e-05  0.004916887 0.0002563065  0.004916887 0.0002563065 -6.914649e-07   1067.4957   1006.4921  65.8109295  -1.3382905  65.8109295  -1.3382905
       265 0.0007628819 8.105124e-05  0.005561529 0.0003624722  0.005561529 0.0003624722 4.438425e-06    632.4843   1018.9977  65.8157643  -1.3381516  65.8157643  -1.3381516
