#   1 NUMBER                 Running object number                                     
#   2 FLUX_ISO               Isophotal flux                                             [count]
#   3 FLUXERR_ISO            RMS error for isophotal flux                               [count]
#   4 FLUX_AUTO              Flux within a Kron-like elliptical aperture                [count]
#   5 FLUXERR_AUTO           RMS error for AUTO flux                                    [count]
#   6 FLUX_BEST              Best of FLUX_AUTO and FLUX_ISOCOR                          [count]
#   7 FLUXERR_BEST           RMS error for BEST flux                                    [count]
#   8 BACKGROUND             Background at centroid position                            [count]
#   9 X_IMAGE                Object position along x                                    [pixel]
#  10 Y_IMAGE                Object position along y                                    [pixel]
#  11 ALPHA_SKY              Right ascension of barycenter (native)                     [deg]
#  12 DELTA_SKY              Declination of barycenter (native)                         [deg]
#  13 ALPHA_J2000            Right ascension of barycenter (J2000)                      [deg]
#  14 DELTA_J2000            Declination of barycenter (J2000)                          [deg]
         1 0.0008906664 8.469136e-05  0.006284164 0.0003267911  0.006284164 0.0003267911 -5.146596e-06    345.6804      4.1094  65.8189519  -1.3494281  65.8189519  -1.3494281
         2  0.001487177 0.0001093361   0.01147868 0.0003860456   0.01147868 0.0003860456 -5.363723e-06     96.3381      3.4555  65.8217231  -1.3494353  65.8217231  -1.3494353
         3 0.0002857784 4.889658e-05  0.002461812 0.0001955863  0.002461812 0.0001955863 -5.024161e-06    637.6646     14.6760  65.8157067  -1.3493107  65.8157067  -1.3493107
         4 0.0003912904 5.646091e-05  0.004173056 0.0002556376  0.004173056 0.0002556376 4.594953e-06    671.7441     17.9983  65.8153280  -1.3492738  65.8153280  -1.3492738
         5  0.000744695 7.984778e-05  0.008444251 0.0003755818  0.008444251 0.0003755818 -3.76578e-06    160.8625     30.5004  65.8210060  -1.3491349  65.8210060  -1.3491349
         6  0.002246253 0.0001383004  0.009411582 0.0003992389  0.009411582 0.0003992389 -4.186169e-06    609.7983     71.4932  65.8160164  -1.3486794  65.8160164  -1.3486794
         7 0.0008851963 8.469136e-05  0.006532827 0.0003604223  0.006532827 0.0003604223 -8.910495e-06    611.3281     39.1207  65.8159994  -1.3490391  65.8159994  -1.3490391
         8  0.001297388 0.0001017863  0.005816479  0.000363724  0.005816479  0.000363724 -3.934682e-06   1145.4840     43.0193  65.8100627  -1.3489958  65.8100627  -1.3489958
         9 0.0004602963 6.312521e-05  0.005136766 0.0002837126  0.005136766 0.0002837126 1.462481e-07    818.3935     45.2024  65.8136981  -1.3489715  65.8136981  -1.3489715
        10  0.001957606 0.0001262504  0.009735239  0.000490593  0.009735239  0.000490593 5.368359e-06    734.7461     51.2685  65.8146278  -1.3489041  65.8146278  -1.3489041
        11   0.00157261 0.0001129218  0.008499839 0.0004032115  0.008499839 0.0004032115 -3.196608e-06    421.4994     65.0200  65.8181092  -1.3487513  65.8181092  -1.3487513
        12 0.0003594653 5.646091e-05   0.00540074 0.0002587364   0.00540074 0.0002587364 -2.879214e-06   1061.5013     57.9980  65.8109961  -1.3488293  65.8109961  -1.3488293
        13 0.0002813256 4.889658e-05  0.003065723 0.0002074506  0.003065723 0.0002074506 -2.714325e-06    398.6666     55.6724  65.8183630  -1.3488552  65.8183630  -1.3488552
        14 0.0004754533 6.312521e-05  0.004134859 0.0002751564  0.004134859 0.0002751564 -1.547275e-06    910.2014     69.5946  65.8126777  -1.3487005  65.8126777  -1.3487005
        15 0.0009265428 8.927253e-05  0.004708366 0.0002737044  0.004708366 0.0002737044 3.319407e-07    849.5957     77.2015  65.8133513  -1.3486160  65.8133513  -1.3486160
        16  0.002288538 0.0001324126   0.01114264 0.0005319025   0.01114264 0.0005319025 4.450026e-06    656.2523     83.4897  65.8155001  -1.3485461  65.8155001  -1.3485461
        17   0.00276477 0.0001493815   0.01589744 0.0006146205   0.01589744 0.0006146205 -6.234972e-06    552.3793     97.8128  65.8166546  -1.3483869  65.8166546  -1.3483869
        18 0.0002844703 4.889658e-05  0.004247972 0.0002344998  0.004247972 0.0002344998 -5.489976e-06    506.9995     89.0000  65.8171590  -1.3484849  65.8171590  -1.3484849
        19  0.004313674 0.0001807631   0.01103771 0.0005319025   0.01103771 0.0005319025 -5.991876e-06    549.9993    109.0068  65.8166811  -1.3482626  65.8166811  -1.3482626
        20 0.0009255129 8.469136e-05  0.008516679 0.0003776977  0.008516679 0.0003776977 -7.179946e-06     10.8809    104.6501  65.8226729  -1.3483110  65.8226729  -1.3483110
        21 0.0004686776 6.312521e-05  0.004005311  0.000270777  0.004005311  0.000270777 1.582088e-07    965.1992    109.5964  65.8120665  -1.3482560  65.8120665  -1.3482560
        22 0.0009658019 8.927253e-05  0.004318342  0.000345751  0.004318342  0.000345751 2.398421e-06    328.4989    113.9983  65.8191429  -1.3482071  65.8191429  -1.3482071
        23 0.0008630728 8.469136e-05  0.007406941 0.0003734538  0.007406941 0.0003734538 3.193972e-06    238.3085    121.6727  65.8201453  -1.3481218  65.8201453  -1.3481218
        24  0.001128103 9.779316e-05  0.007082867 0.0003680801  0.007082867 0.0003680801 -9.841385e-07    133.8950    162.3297  65.8213057  -1.3476701  65.8213057  -1.3476701
        25 0.0005769875 6.915021e-05    0.0042015 0.0002851136    0.0042015 0.0002851136 -2.993914e-06    407.8335    140.8302  65.8182611  -1.3479090  65.8182611  -1.3479090
        26 0.0002838834 4.889658e-05  0.002845477 0.0002074506  0.002845477 0.0002074506 3.910533e-07    958.6641    138.6630  65.8121391  -1.3479330  65.8121391  -1.3479330
        27 0.0003028814 4.889658e-05  0.001702805 0.0001914683  0.001702805 0.0001914683 8.335024e-07    871.3215    139.3220  65.8131098  -1.3479257  65.8131098  -1.3479257
        28 0.0007486455 7.984778e-05  0.005301023 0.0002851136  0.005301023 0.0002851136 -5.37086e-06    518.4004    149.1925  65.8170323  -1.3478161  65.8170323  -1.3478161
        29 0.0002827536 4.889658e-05  0.003083334 0.0002074506  0.003083334 0.0002074506 2.969131e-06    194.3393    148.3298  65.8206339  -1.3478256  65.8206339  -1.3478256
        30   0.00449937 0.0001872596    0.0162413 0.0006822197    0.0162413 0.0006822197 -4.689604e-06    437.8841    169.0992  65.8179271  -1.3475949  65.8179271  -1.3475949
        31 0.0005583221 6.915021e-05   0.00623197 0.0003066612   0.00623197 0.0003066612  6.82557e-07   1072.5043    159.9923  65.8108738  -1.3476961  65.8108738  -1.3476961
        32  0.003252324 0.0001596956   0.01012946 0.0005757905   0.01012946 0.0005757905 4.935813e-07    597.7024    168.0927  65.8161509  -1.3476061  65.8161509  -1.3476061
        33 0.0003932376 5.646091e-05  0.003467266 0.0002461074  0.003467266 0.0002461074 -4.805228e-06     70.4995    162.4929  65.8220103  -1.3476683  65.8220103  -1.3476683
        34 0.0005501686 6.915021e-05  0.004815255 0.0002960835  0.004815255 0.0002960835 -5.313674e-06    459.5051    169.5020  65.8176868  -1.3475904  65.8176868  -1.3475904
        35  0.002332693 0.0001324126   0.01595674  0.000537121   0.01595674  0.000537121 -1.675046e-06   1159.1243    178.9297  65.8099111  -1.3474856  65.8099111  -1.3474856
        36  0.001003807 8.927253e-05   0.01082412 0.0003992389   0.01082412 0.0003992389 -4.603867e-06   1215.3096    177.2171  65.8092867  -1.3475047  65.8092867  -1.3475047
        37  0.001096103 9.362982e-05  0.006342847 0.0003669959  0.006342847 0.0003669959 -9.93439e-06      7.6380    183.0970  65.8227090  -1.3474393  65.8227090  -1.3474393
        38  0.002946736 0.0001571805   0.01231398 0.0005813006   0.01231398 0.0005813006 4.192453e-06    335.5357    194.0654  65.8190646  -1.3473175  65.8190646  -1.3473175
        39  0.002061237 0.0001262504   0.01113995 0.0004930237   0.01113995 0.0004930237 -1.038671e-06   1153.2489    191.4919  65.8099764  -1.3473461  65.8099764  -1.3473461
        40 0.0009821207 8.927253e-05  0.006017998 0.0003839757  0.006017998 0.0003839757 1.904504e-07    593.9040    195.4109  65.8161931  -1.3473025  65.8161931  -1.3473025
        41  0.001804044 0.0001163971  0.008164523 0.0004516873  0.008164523 0.0004516873 7.462286e-06    706.3352    196.5883  65.8149435  -1.3472894  65.8149435  -1.3472894
        42  0.001009642 8.927253e-05   0.00603622 0.0003680801   0.00603622 0.0003680801 7.932359e-06    662.8085    198.0159  65.8154273  -1.3472736  65.8154273  -1.3472736
        43 0.0007223407 7.469076e-05  0.003035007 0.0002865078  0.003035007 0.0002865078 4.106569e-06    630.7022    203.1615  65.8157841  -1.3472164  65.8157841  -1.3472164
        44  0.001353977 0.0001056287  0.006530861 0.0003352181  0.006530861 0.0003352181 3.699793e-06    266.8728    228.8755  65.8198278  -1.3469307  65.8198278  -1.3469307
        45  0.001638463 0.0001129218  0.006030308 0.0004090981  0.006030308 0.0004090981  1.59924e-06    826.8255    234.4779  65.8136044  -1.3468684  65.8136044  -1.3468684
        46  0.000371373 5.646091e-05  0.004328348 0.0002525008  0.004328348 0.0002525008 9.124467e-07   1016.5026    233.5008  65.8114963  -1.3468793  65.8114963  -1.3468793
        47 0.0009488467 8.927253e-05  0.008275177   0.00039219  0.008275177   0.00039219 -1.020177e-05   1236.1919   1009.6007  65.8090546  -1.3382560  65.8090546  -1.3382560
        48 0.0007126186 7.469076e-05  0.003765213 0.0002509178  0.003765213 0.0002509178 -7.139095e-06     50.1224   1248.3021  65.8222368  -1.3356037  65.8222368  -1.3356037
        49 0.0008411403 8.469136e-05  0.008980608 0.0003659085  0.008980608 0.0003659085 -1.571765e-06   1171.3308   1244.8799  65.8097755  -1.3356417  65.8097755  -1.3356417
        50 0.0008784102 8.469136e-05   0.00709588  0.000359315   0.00709588  0.000359315  9.41466e-07    602.3339   1212.8774  65.8160994  -1.3359973  65.8160994  -1.3359973
        51 0.0003612141 5.646091e-05  0.004581508 0.0002678176  0.004581508 0.0002678176 1.024667e-06    482.9890    952.2441  65.8174258  -1.3388933  65.8174258  -1.3388933
        52  0.001051784 9.362982e-05  0.006805431 0.0003292208  0.006805431 0.0003292208 -1.093631e-06    490.5807    934.2807  65.8173414  -1.3390929  65.8173414  -1.3390929
        53  0.002399644 0.0001353885   0.01143044 0.0005393421   0.01143044 0.0005393421 1.142027e-06    843.0030    928.1016  65.8134246  -1.3391615  65.8134246  -1.3391615
        54 0.0003762989 5.646091e-05  0.003786284 0.0002461074  0.003786284 0.0002461074 -1.313433e-06    471.4972    929.5032  65.8175535  -1.3391459  65.8175535  -1.3391459
        55  0.001100676 9.362982e-05  0.005621015  0.000385012  0.005621015  0.000385012 -5.249349e-06    600.8174    927.8315  65.8161163  -1.3391645  65.8161163  -1.3391645
        56 0.0008678076 8.469136e-05  0.004987128 0.0003469016  0.004987128 0.0003469016 4.754338e-06    727.3350    926.4353  65.8147101  -1.3391800  65.8147101  -1.3391800
        57  0.002999279 0.0001571805   0.01947151 0.0006698415   0.01947151 0.0006698415 -4.227089e-07    373.8365    924.0712  65.8186390  -1.3392063  65.8186390  -1.3392063
        58  0.001069529 9.362982e-05  0.005279004 0.0003723853  0.005279004 0.0003723853  3.82502e-07    327.6410    923.5420  65.8191524  -1.3392122  65.8191524  -1.3392122
        59  0.007897669 0.0002493246   0.03554343 0.0008360219   0.03554343 0.0008360219 -9.91368e-07    396.3885    916.6724  65.8183883  -1.3392885  65.8183883  -1.3392885
        60 0.0005492366 6.915021e-05  0.007918276 0.0003267911  0.007918276 0.0003267911 -1.101483e-06   1104.4958    910.3295  65.8105183  -1.3393590  65.8105183  -1.3393590
        61 0.0005837593 6.915021e-05  0.003413639 0.0002766008  0.003413639 0.0002766008 2.981458e-06    710.4988    909.9962  65.8148972  -1.3393627  65.8148972  -1.3393627
        62  0.001027417 9.362982e-05  0.005700376 0.0003292208  0.005700376 0.0003292208 8.339514e-07    825.5732    906.7176  65.8136183  -1.3393991  65.8136183  -1.3393991
        63  0.001080476 9.779316e-05  0.006909997 0.0004041986  0.006909997 0.0004041986 1.222191e-06    238.7520    902.5830  65.8201403  -1.3394450  65.8201403  -1.3394450
        64 0.0008702826 8.469136e-05  0.006597675 0.0003615262  0.006597675 0.0003615262 1.413205e-06    720.6674    887.5598  65.8147842  -1.3396120  65.8147842  -1.3396120
        65  0.001197923 0.0001017863  0.007498143 0.0004355182  0.007498143 0.0004355182 -5.287999e-06    633.3738    884.8229  65.8157544  -1.3396424  65.8157544  -1.3396424
        66  0.001711923 0.0001163971   0.01040168 0.0004848739   0.01040168 0.0004848739 -7.265731e-06    508.8675    868.8232  65.8171382  -1.3398202  65.8171382  -1.3398202
        67  0.001317429 0.0001056287  0.009902043 0.0004689995  0.009902043 0.0004689995 -6.302133e-06    447.9853    865.5763  65.8178149  -1.3398562  65.8178149  -1.3398562
        68  0.001259961 0.0001017863   0.00745742 0.0004090981   0.00745742 0.0004090981 9.224689e-07    757.8333    860.9932  65.8143712  -1.3399072  65.8143712  -1.3399072
        69 0.0004985494 6.312521e-05  0.002771162 0.0002587364  0.002771162 0.0002587364 -2.171737e-06    311.4118    859.7897  65.8193328  -1.3399205  65.8193328  -1.3399205
        70  0.002008462 0.0001293682   0.01166117 0.0004938312   0.01166117 0.0004938312 4.985177e-07    748.8990    854.0588  65.8144705  -1.3399842  65.8144705  -1.3399842
        71  0.001452185 0.0001093361   0.00932826 0.0004612894   0.00932826 0.0004612894 -2.703886e-06    931.8723    846.0712  65.8124369  -1.3400730  65.8124369  -1.3400730
        72  0.001914174 0.0001230537  0.006585932 0.0004382545  0.006585932 0.0004382545 -7.63828e-06    490.4098    853.5964  65.8173433  -1.3399893  65.8173433  -1.3399893
        73 0.0002819161 4.889658e-05  0.003591583 0.0002344998  0.003591583 0.0002344998 -5.215693e-06    352.9943    845.0000  65.8188706  -1.3400849  65.8188706  -1.3400849
        74  0.001948983 0.0001230537   0.01509707 0.0005251168   0.01509707 0.0005251168 3.741909e-06   1127.2388    839.8530  65.8102655  -1.3401420  65.8102655  -1.3401420
        75 0.0004754886 6.312521e-05  0.004030215 0.0002722446  0.004030215 0.0002722446 -6.693907e-08   1043.7952    838.4039  65.8111929  -1.3401581  65.8111929  -1.3401581
        76 0.0008650747 8.469136e-05  0.004605636 0.0002851136  0.004605636 0.0002851136 -7.463638e-06    623.9900    837.5087  65.8158587  -1.3401681  65.8158587  -1.3401681
        77 0.0003046252 4.889658e-05  0.003404555 0.0002310762  0.003404555 0.0002310762 -7.559764e-06    621.0000    832.9656  65.8158919  -1.3402186  65.8158919  -1.3402186
        78 0.0005756724 6.915021e-05  0.004177726 0.0002960835  0.004177726 0.0002960835 -7.714236e-06    575.4852    813.5098  65.8163978  -1.3404348  65.8163978  -1.3404348
        79 0.0004599114 6.312521e-05  0.006708127 0.0002906503  0.006708127 0.0002906503 3.072323e-06   1071.3992    805.2034  65.8108861  -1.3405270  65.8108861  -1.3405270
        80  0.001360252 0.0001017863  0.004475548 0.0003548513  0.004475548 0.0003548513 -7.407055e-06    615.8634    793.9228  65.8159490  -1.3406524  65.8159490  -1.3406524
        81  0.003251843 0.0001646104   0.01461395 0.0005867589   0.01461395 0.0005867589 5.345345e-07    192.5503    782.3036  65.8206538  -1.3407815  65.8206538  -1.3407815
        82  0.004129305 0.0001829542   0.01808219 0.0006094117   0.01808219 0.0006094117 -4.088352e-06    557.8207    770.8620  65.8165941  -1.3409086  65.8165941  -1.3409086
        83 0.0002757205 4.889658e-05  0.003927218 0.0002344998  0.003927218 0.0002344998  1.31228e-06   1213.9923    766.0000  65.8093013  -1.3409626  65.8093013  -1.3409626
        84  0.001084811 9.362982e-05  0.004340789 0.0003582043  0.004340789 0.0003582043 8.162153e-07    185.3591    762.4662  65.8207337  -1.3410019  65.8207337  -1.3410019
        85  0.001089067 9.362982e-05  0.009248586 0.0004081229  0.009248586 0.0004081229 -3.838678e-06    738.5458    759.6390  65.8145855  -1.3410333  65.8145855  -1.3410333
        86  0.002724764 0.0001411523  0.005265678 0.0004002358  0.005265678 0.0004002358 -5.043827e-06    619.1967    751.7026  65.8159120  -1.3411215  65.8159120  -1.3411215
        87  0.005757034 0.0002149967   0.02848633 0.0007787718   0.02848633 0.0007787718 -3.03588e-06    884.5983    745.7024  65.8129623  -1.3411882  65.8129623  -1.3411882
        88  0.003898678 0.0001670136   0.01929499 0.0006584417   0.01929499 0.0006584417 -9.20382e-07    445.5771    743.1332  65.8178416  -1.3412167  65.8178416  -1.3412167
        89 0.0008404236 7.984778e-05  0.003827902  0.000298763  0.003827902  0.000298763 -5.439178e-06    628.1204    743.8618  65.8158128  -1.3412086  65.8158128  -1.3412086
        90 0.0005835763 6.915021e-05  0.005188227 0.0002933795  0.005188227 0.0002933795 -7.065681e-08    546.4875    742.5014  65.8167201  -1.3412237  65.8167201  -1.3412237
        91  0.004132396 0.0001785451    0.0115294 0.0005975261    0.0115294 0.0005975261 -7.809687e-06    656.0196    736.4680  65.8155027  -1.3412908  65.8155027  -1.3412908
        92   0.00112494 9.362982e-05  0.006448947 0.0003691611  0.006448947 0.0003691611 -4.147233e-06    811.9949    731.9956  65.8137692  -1.3413405  65.8137692  -1.3413405
        93 0.0002647779 4.889658e-05  0.003516895 0.0002074506  0.003516895 0.0002074506 4.611073e-07   1221.3320    726.3319  65.8092198  -1.3414034  65.8092198  -1.3414034
        94  0.001256263 0.0001017863  0.005771584 0.0003962333  0.005771584 0.0003962333 -3.803954e-06    866.7600    724.8483  65.8131605  -1.3414199  65.8131605  -1.3414199
        95 0.0003000889 4.889658e-05   0.00212974 0.0001955863   0.00212974 0.0001955863 -3.838396e-06    745.6682    722.6744  65.8145064  -1.3414440  65.8145064  -1.3414440
        96  0.001888714 0.0001230537   0.01311928   0.00048978   0.01311928   0.00048978 1.698192e-06    493.7399    713.1303  65.8173063  -1.3415501  65.8173063  -1.3415501
        97  0.000603237 6.915021e-05  0.003361548 0.0002780377  0.003361548 0.0002780377  2.87722e-06    636.8338    706.8302  65.8157160  -1.3416201  65.8157160  -1.3416201
        98  0.001024132 9.362982e-05  0.006467862 0.0003766412  0.006467862 0.0003766412 3.237461e-06    544.1021    702.6429  65.8167466  -1.3416666  65.8167466  -1.3416666
        99 0.0002929472 4.889658e-05  0.002601869 0.0001955863  0.002601869 0.0001955863 1.062924e-06    212.6684    697.3228  65.8204302  -1.3417257  65.8204302  -1.3417257
       100  0.007828158 0.0002477212   0.01770132 0.0007329052   0.01770132 0.0007329052 4.870177e-06    672.6129    691.0606  65.8153183  -1.3417953  65.8153183  -1.3417953
       101  0.001047975 9.362982e-05  0.007443229 0.0003982396  0.007443229 0.0003982396 2.226689e-06    472.7235    680.0056  65.8175399  -1.3419181  65.8175399  -1.3419181
       102 0.0009615094 8.927253e-05  0.007066146 0.0003860456  0.007066146 0.0003860456 1.300642e-06    368.3019    693.7890  65.8187005  -1.3417650  65.8187005  -1.3417650
       103  0.003119073 0.0001596956  0.009538461 0.0006126724  0.009538461 0.0006126724 1.225523e-05    648.7308    672.4976  65.8155837  -1.3420016  65.8155837  -1.3420016
       104  0.007413471 0.0002149967   0.01485179 0.0006229918   0.01485179 0.0006229918 1.298601e-05    637.6029    664.0065  65.8157074  -1.3420959  65.8157074  -1.3420959
       105   0.00149035 0.0001056287  0.008944843 0.0004272043  0.008944843 0.0004272043 1.212843e-05    591.7401    658.7560  65.8162171  -1.3421542  65.8162171  -1.3421542
       106  0.001319443 0.0001017863  0.004308711 0.0003615262  0.004308711 0.0003615262 3.139738e-06    351.0064    660.0055  65.8188927  -1.3421404  65.8188927  -1.3421404
       107 0.0005558071 6.915021e-05  0.006000251 0.0003066612  0.006000251 0.0003066612 -1.722947e-06     28.9982    656.4979  65.8224715  -1.3421793  65.8224715  -1.3421793
       108  0.005423288 0.0001893756   0.01966473 0.0006529723   0.01966473 0.0006529723 1.232166e-05    648.4753    653.5021  65.8155866  -1.3422126  65.8155866  -1.3422126
       109  0.003078742 0.0001596956   0.03489493 0.0007485064   0.03489493 0.0007485064 1.145801e-05    660.7991    647.2220  65.8154496  -1.3422824  65.8154496  -1.3422824
       110   0.02665839 0.0004409738    0.0468808  0.001114299    0.0468808  0.001114299 1.251608e-05    595.6257    640.8674  65.8161740  -1.3423530  65.8161740  -1.3423530
       111   0.00213735 0.0001262504   0.01202757 0.0005159304   0.01202757 0.0005159304 2.997112e-06    537.9468    641.9597  65.8168150  -1.3423409  65.8168150  -1.3423409
       112 0.0004718534 6.312521e-05  0.004794836 0.0002837126  0.004794836 0.0002837126 4.050071e-06    276.2037    639.6055  65.8197241  -1.3423670  65.8197241  -1.3423670
       113 0.0006821205 7.469076e-05  0.005329265  0.000310535  0.005329265  0.000310535 1.154054e-06    481.9835    633.9938  65.8174370  -1.3424294  65.8174370  -1.3424294
       114   0.06992882 0.0004177726   0.02882562 0.0006541917   0.07812037 0.0008568609 1.384967e-05    625.1763    626.2119  65.8158455  -1.3425158  65.8158455  -1.3425158
       115   0.03727087 0.0004346023   0.03813678 0.0007301816   0.05509176  0.001400679 1.336374e-05    627.0223    607.1442  65.8158250  -1.3427277  65.8158250  -1.3427277
       116  0.001973703 0.0001262504   0.01546746 0.0005716231   0.01546746 0.0005716231 1.792068e-06    492.2985    642.9293  65.8173224  -1.3423301  65.8173224  -1.3423301
       117   0.00978088 0.0002678176   0.02922882 0.0009294638   0.02501712   0.00116589 1.238497e-05    596.6525    617.7873  65.8161625  -1.3426094  65.8161625  -1.3426094
       118  0.007586143 0.0002327943   0.01249604 0.0004206243   0.01813977 0.0009906625 1.289768e-05    599.3121    626.2338  65.8161330  -1.3425156  65.8161330  -1.3425156
       119  0.005961446 0.0002074506   0.04148237 0.0009771163   0.01463075 0.0008908531 1.106252e-05    589.5654    625.0249  65.8162413  -1.3425290  65.8162413  -1.3425290
       120  0.006489472 0.0002131353   0.01016638 0.0003648179   0.01016638 0.0003648179 1.205592e-05    651.6846    628.4589  65.8155509  -1.3424909  65.8155509  -1.3424909
       121   0.03624867 0.0005143834   0.07552067  0.001618272   0.07552067  0.001618272 1.119227e-05    664.5066    621.7432  65.8154084  -1.3425655  65.8154084  -1.3425655
       122 0.0003712394 5.646091e-05  0.004771008 0.0002525008  0.004771008 0.0002525008 -3.096909e-07    769.5000    618.5102  65.8142415  -1.3426014  65.8142415  -1.3426014
       123 0.0006388607 7.469076e-05  0.004679264 0.0003066612  0.004679264 0.0003066612 -3.060662e-06     44.1464    613.5689  65.8223032  -1.3426563  65.8223032  -1.3426563
       124  0.002580213 0.0001439476   0.01597877 0.0006159157   0.01597877 0.0006159157 2.654584e-06    984.1693    616.1507  65.8118556  -1.3426276  65.8118556  -1.3426276
       125 0.0003935977 5.646091e-05   0.00322484 0.0002461074   0.00322484 0.0002461074  2.70395e-06    362.4980    609.4902  65.8187650  -1.3427016  65.8187650  -1.3427016
       126 0.0004786548 6.312521e-05  0.005157753 0.0002808895  0.005157753 0.0002808895 -1.876334e-06    797.7879    605.4037  65.8139271  -1.3427470  65.8139271  -1.3427470
       127  0.004015902 0.0001829542   0.04204496 0.0009506582   0.04204496 0.0009506582 8.455995e-06    587.3048    598.9717  65.8162664  -1.3428185  65.8162664  -1.3428185
       128  0.004867116 0.0001829542   0.01970075 0.0006686507   0.01970075 0.0006686507 1.134334e-05    601.7073    598.2604  65.8161064  -1.3428264  65.8161064  -1.3428264
       129 0.0005608838 6.915021e-05  0.004494392 0.0002920181  0.004494392 0.0002920181 1.007311e-06    383.9891    600.5065  65.8185261  -1.3428015  65.8185261  -1.3428015
       130  0.001800344 0.0001197717   0.01030617 0.0004881502   0.01030617 0.0004881502 1.060619e-05    650.9813    598.5427  65.8155587  -1.3428233  65.8155587  -1.3428233
       131 0.0003033649 4.889658e-05  0.002396977 0.0001955863  0.002396977 0.0001955863 -2.707447e-07    542.3274    598.3286  65.8167663  -1.3428257  65.8167663  -1.3428257
       132  0.006101272 0.0002131353      0.01956 0.0007772352      0.01956 0.0007772352 5.617247e-06    707.6146    598.0934  65.8149293  -1.3428283  65.8149293  -1.3428283
       133   0.01209452 0.0002906503   0.03762544  0.001033019   0.03762544  0.001033019 1.091698e-05    610.8483    589.2027  65.8160048  -1.3429271  65.8160048  -1.3429271
       134  0.001923127 0.0001262504   0.01206402 0.0005378624   0.01206402 0.0005378624  1.02249e-06   1144.3507    589.7331  65.8100753  -1.3429212  65.8100753  -1.3429212
       135  0.002035024 0.0001230537  0.009304336 0.0004621524  0.009304336 0.0004621524 1.003708e-06   1132.7850    585.6241  65.8102039  -1.3429668  65.8102039  -1.3429668
       136   0.00137436 0.0001056287  0.007062666 0.0003829365  0.007062666 0.0003829365 -1.502278e-07    865.6393    575.0800  65.8131730  -1.3430840  65.8131730  -1.3430840
       137  0.004169066 0.0001807631   0.01835229 0.0007057613   0.01835229 0.0007057613 2.535278e-06    577.1771    572.0185  65.8163790  -1.3431180  65.8163790  -1.3431180
       138  0.003168286 0.0001571805   0.01865397 0.0007285426   0.01865397 0.0007285426 2.886031e-06    581.7963    569.1124  65.8163277  -1.3431503  65.8163277  -1.3431503
       139  0.001715239 0.0001197717   0.01166575 0.0005341452   0.01166575 0.0005341452 6.708724e-06    643.5465    572.4385  65.8156414  -1.3431133  65.8156414  -1.3431133
       140 0.0002707133 4.889658e-05  0.003049365 0.0002074506  0.003049365 0.0002074506 1.114013e-06   1116.3357    566.3320  65.8103867  -1.3431812  65.8103867  -1.3431812
       141 0.0005978623 6.915021e-05  0.005488659 0.0002906503  0.005488659 0.0002906503 4.397287e-06    669.9765    560.4915  65.8153476  -1.3432461  65.8153476  -1.3432461
       142 0.0009067552 8.469136e-05  0.007295141 0.0003525983  0.007295141 0.0003525983 3.943871e-06    228.7783    560.5502  65.8202512  -1.3432454  65.8202512  -1.3432454
       143 0.0002702007 4.889658e-05  0.003446469 0.0002074506  0.003446469 0.0002074506 8.463112e-07    814.6697    559.3329  65.8137395  -1.3432589  65.8137395  -1.3432589
       144 0.0003794599 5.646091e-05  0.003653292 0.0002461074  0.003653292 0.0002461074 3.809017e-06    255.5010    559.5051  65.8199542  -1.3432570  65.8199542  -1.3432570
       145 0.0004621756 6.312521e-05  0.005566478 0.0002837126  0.005566478 0.0002837126 -2.594833e-06    384.7961    558.5991  65.8185172  -1.3432671  65.8185172  -1.3432671
       146  0.001344201 0.0001017863   0.01111659 0.0004309192   0.01111659 0.0004309192    2.262e-06    753.5654    552.1344  65.8144186  -1.3433389  65.8144186  -1.3433389
       147  0.003873544 0.0001717191   0.01334953 0.0006191422   0.01334953 0.0006191422 3.552797e-06    615.1014    550.8294  65.8159575  -1.3433534  65.8159575  -1.3433534
       148  0.001787216 0.0001230537  0.008368924 0.0004552024  0.008368924 0.0004552024 1.742124e-06    862.5848    543.9403  65.8132069  -1.3434300  65.8132069  -1.3434300
       149 0.0003040282 4.889658e-05  0.002545004 0.0001955863  0.002545004 0.0001955863 -5.480468e-06    488.6624    553.3210  65.8173628  -1.3433257  65.8173628  -1.3433257
       150  0.001064542 9.362982e-05  0.008637555 0.0004120099  0.008637555 0.0004120099  1.81677e-06    695.1813    540.4733  65.8150675  -1.3434685  65.8150675  -1.3434685
       151  0.001324731 0.0001017863  0.004328139  0.000345751  0.004328139  0.000345751 1.441531e-06    754.8325    531.6856  65.8144045  -1.3435661  65.8144045  -1.3435661
       152 0.0002721912 4.889658e-05  0.003368025 0.0002074506  0.003368025 0.0002074506 -5.943968e-06    511.3297    532.6663  65.8171108  -1.3435552  65.8171108  -1.3435552
       153 0.0006838297 7.469076e-05  0.003966045 0.0003066612  0.003966045 0.0003066612 -3.607107e-06    365.2875    523.0000  65.8187340  -1.3436626  65.8187340  -1.3436626
       154  0.006287526 0.0002093626  0.009630614 0.0003669959  0.009630614 0.0003669959 -3.155747e-06    592.5790    514.3032  65.8162078  -1.3437593  65.8162078  -1.3437593
       155  0.001036375 8.927253e-05  0.005975366 0.0003604223  0.005975366 0.0003604223 -4.261785e-06    620.9711    501.4605  65.8158923  -1.3439020  65.8158923  -1.3439020
       156  0.000466541 6.312521e-05  0.004604954 0.0002837126  0.004604954 0.0002837126 2.003086e-06    116.1955    500.6008  65.8215024  -1.3439115  65.8215024  -1.3439115
       157 0.0006016255 6.915021e-05  0.003472571 0.0002751564  0.003472571 0.0002751564 -4.717285e-06    638.8262    498.1667  65.8156938  -1.3439386  65.8156938  -1.3439386
       158 0.0009891719 9.362982e-05   0.01197082 0.0004262705   0.01197082 0.0004262705 -6.128809e-06    543.9001    496.8217  65.8167488  -1.3439535  65.8167488  -1.3439535
       159   0.00109491 8.927253e-05  0.005908304 0.0003525983  0.005908304 0.0003525983 -5.780118e-06    632.5231    491.2184  65.8157639  -1.3440158  65.8157639  -1.3440158
       160  0.001161821 9.779316e-05  0.005749528   0.00039219  0.005749528   0.00039219 -6.163551e-06    557.2467    490.5807  65.8166005  -1.3440229  65.8166005  -1.3440229
       161 0.0003772004 5.646091e-05  0.003691225 0.0002617984  0.003691225 0.0002617984 -6.366893e-06    513.9944    490.2451  65.8170812  -1.3440266  65.8170812  -1.3440266
       162  0.000951594 8.927253e-05  0.007776875 0.0003766412  0.007776875 0.0003766412 -5.777623e-06    685.4830    486.5074  65.8151753  -1.3440681  65.8151753  -1.3440681
       163 0.0006207985 7.469076e-05  0.008104813 0.0003480484  0.008104813 0.0003480484 1.231533e-06   1114.4315    481.8572  65.8104079  -1.3441198  65.8104079  -1.3441198
       164  0.003622642 0.0001740242   0.02086038 0.0007063257   0.02086038 0.0007063257 -6.332308e-06    350.5041    479.8479  65.8188983  -1.3441421  65.8188983  -1.3441421
       165  0.001548919 0.0001093361  0.006076007 0.0003972377  0.006076007 0.0003972377 -6.378856e-06    443.1906    479.7375  65.8178681  -1.3441433  65.8178681  -1.3441433
       166  0.002611654 0.0001439476   0.01692998 0.0005995234   0.01692998 0.0005995234 -5.806642e-06    701.6263    477.0594  65.8149959  -1.3441731  65.8149959  -1.3441731
       167 0.0005591682 6.915021e-05  0.005664837 0.0003118156  0.005664837 0.0003118156 -3.46734e-06   1243.1766    477.8394  65.8089770  -1.3441644  65.8089770  -1.3441644
       168 0.0006130371 6.915021e-05  0.004177331 0.0002766008  0.004177331 0.0002766008 1.159132e-06   1054.9917    477.4899  65.8110685  -1.3441683  65.8110685  -1.3441683
       169  0.004022144 0.0001740242   0.02473242 0.0007522237   0.02473242 0.0007522237  1.20007e-06   1050.7656    460.5275  65.8111155  -1.3443568  65.8111155  -1.3443568
       170 0.0005662915 6.915021e-05  0.005137831 0.0002960835  0.005137831 0.0002960835 1.587514e-06   1081.8295    458.1711  65.8107702  -1.3443830  65.8107702  -1.3443830
       171 0.0004076425 5.646091e-05  0.002288108 0.0002327943  0.002288108 0.0002327943 -7.433343e-06    628.5005    458.4915  65.8158086  -1.3443794  65.8158086  -1.3443794
       172 0.0002709666 4.889658e-05  0.003502446 0.0002074506  0.003502446 0.0002074506 1.298332e-06   1151.3322    457.3312  65.8099977  -1.3443923  65.8099977  -1.3443923
       173   0.00225013 0.0001324126  0.008561181 0.0004774203  0.008561181 0.0004774203 3.107398e-06    181.2498    452.6595  65.8207794  -1.3444442  65.8207794  -1.3444442
       174  0.003255926 0.0001571805    0.0151006 0.0006249077    0.0151006 0.0006249077 -2.067612e-06    890.8201    436.7416  65.8128931  -1.3446211  65.8128931  -1.3446211
       175 0.0007511763 7.984778e-05  0.006981175  0.000359315  0.006981175  0.000359315 3.676129e-06    155.4968    436.4962  65.8210656  -1.3446238  65.8210656  -1.3446238
       176 0.0005534849 6.915021e-05  0.006481644 0.0003352181  0.006481644 0.0003352181 -7.006627e-06    736.6835    428.3423  65.8146062  -1.3447144  65.8146062  -1.3447144
       177  0.002163515 0.0001353885   0.01580556 0.0006734013   0.01580556 0.0006734013 1.962156e-06   1053.4922    420.1149  65.8110852  -1.3448058  65.8110852  -1.3448058
       178 0.0005292046 6.312521e-05  0.003389122 0.0002587364  0.003389122 0.0002587364 -7.662647e-06    630.6277    418.8086  65.8157849  -1.3448203  65.8157849  -1.3448203
       179 0.0005605221 6.915021e-05  0.005302324 0.0003000938  0.005302324 0.0003000938 -6.861739e-06    324.1712    413.8334  65.8191910  -1.3448756  65.8191910  -1.3448756
       180 0.0009552399 8.927253e-05   0.01176309 0.0004120099   0.01176309 0.0004120099 -6.902994e-06    295.3013    413.7963  65.8195118  -1.3448760  65.8195118  -1.3448760
       181 0.0008559529 8.469136e-05  0.005877423 0.0003503307  0.005877423 0.0003503307 -2.836061e-06    847.5494    413.1187  65.8133740  -1.3448835  65.8133740  -1.3448835
       182  0.001288663 0.0001056287   0.01505458 0.0004715415   0.01505458 0.0004715415 1.796215e-06   1075.4823    410.0038  65.8108408  -1.3449181  65.8108408  -1.3449181
       183 0.0008632117 8.469136e-05   0.00583882 0.0003491914   0.00583882 0.0003491914 -5.593434e-06    270.3377    404.0001  65.8197893  -1.3449849  65.8197893  -1.3449849
       184 0.0003706703 5.646091e-05   0.00420016 0.0002617984   0.00420016 0.0002617984 -1.752017e-07    192.7481    403.9997  65.8206516  -1.3449849  65.8206516  -1.3449849
       185 0.0004909962 6.312521e-05  0.004510033 0.0002678176  0.004510033 0.0002678176 -3.285067e-06    226.6000    395.7984  65.8202754  -1.3450760  65.8202754  -1.3450760
       186 0.0009966161 8.927253e-05  0.004679759 0.0003537266  0.004679759 0.0003537266 -7.312308e-06    606.8120    394.6089  65.8160496  -1.3450892  65.8160496  -1.3450892
       187  0.001261988 0.0001017863  0.009779829 0.0004418765  0.009779829 0.0004418765 1.457766e-06   1006.8345    391.4633  65.8116037  -1.3451242  65.8116037  -1.3451242
       188 0.0004469465 6.312521e-05  0.005017622 0.0002892761  0.005017622 0.0002892761 2.991302e-06    495.6077    382.2023  65.8172856  -1.3452271  65.8172856  -1.3452271
       189  0.001499374 0.0001093361  0.008362575 0.0004409738  0.008362575 0.0004409738 -7.569138e-06    700.4969    355.8684  65.8150084  -1.3455197  65.8150084  -1.3455197
       190 0.0002887496 4.889658e-05  0.002584277 0.0001955863  0.002584277 0.0001955863 -1.317478e-06   1151.3326    352.3303  65.8099977  -1.3455590  65.8099977  -1.3455590
       191 0.0004649419 6.312521e-05  0.004916469 0.0002837126  0.004916469 0.0002837126 9.043502e-07   1015.2054    347.5982  65.8115107  -1.3456115  65.8115107  -1.3456115
       192 0.0009154115 8.469136e-05  0.004313956 0.0003280082  0.004313956 0.0003280082 -6.894936e-06    647.1176    343.3113  65.8156017  -1.3456592  65.8156017  -1.3456592
       193 0.0002886732 4.889658e-05   0.00235151 0.0001955863   0.00235151 0.0001955863 -6.673366e-06    658.3309    340.6649  65.8154770  -1.3456886  65.8154770  -1.3456886
       194   0.00178834 0.0001230537   0.01038333 0.0004481446   0.01038333 0.0004481446 2.168872e-06    520.3664    339.2254  65.8170104  -1.3457046  65.8170104  -1.3457046
       195 0.0007628723 7.984778e-05  0.007416602 0.0003537266  0.007416602 0.0003537266 1.748191e-06    959.8683    334.8781  65.8121257  -1.3457529  65.8121257  -1.3457529
       196 0.0004603321 6.312521e-05  0.006415676 0.0002906503  0.006415676 0.0002906503 -3.354923e-06    372.2075    335.6058  65.8186571  -1.3457448  65.8186571  -1.3457448
       197 0.0003823221 5.646091e-05  0.003940242 0.0002461074  0.003940242 0.0002461074 2.464553e-06    506.4919    334.4955  65.8171646  -1.3457571  65.8171646  -1.3457571
       198 0.0003828125 5.646091e-05  0.004554387 0.0002648251  0.004554387 0.0002648251 -5.822889e-06    316.9929    334.7583  65.8192707  -1.3457542  65.8192707  -1.3457542
       199  0.001803351 0.0001197717   0.01227896 0.0005010408   0.01227896 0.0005010408 -8.103588e-07    785.8533    331.0570  65.8140597  -1.3457953  65.8140597  -1.3457953
       200  0.001239705 0.0001017863   0.01139424 0.0004508042   0.01139424 0.0004508042 -6.697225e-07    407.0858    329.7064  65.8182694  -1.3458103  65.8182694  -1.3458103
       201 0.0009211107 8.469136e-05  0.005891579 0.0003537266  0.005891579 0.0003537266 1.674809e-06    952.2089    328.1203  65.8122108  -1.3458280  65.8122108  -1.3458280
       202 0.0008512562 8.469136e-05  0.004756974 0.0002878953  0.004756974 0.0002878953 -2.155023e-06    389.5050    326.4990  65.8184648  -1.3458460  65.8184648  -1.3458460
       203 0.0007957739 7.984778e-05  0.004913765 0.0003255695  0.004913765 0.0003255695 -3.873894e-06    587.1493    296.8854  65.8162682  -1.3461750  65.8162682  -1.3461750
       204 0.0005556972 6.915021e-05  0.005398045 0.0002960835  0.005398045 0.0002960835 -5.141197e-06    332.9874    294.4957  65.8190930  -1.3462016  65.8190930  -1.3462016
       205  0.001259935 9.779316e-05  0.005861898 0.0003680801  0.005861898 0.0003680801 -5.338959e-06    259.8369    294.0887  65.8199060  -1.3462061  65.8199060  -1.3462061
       206   0.00113497 9.362982e-05  0.004414124 0.0003422761  0.004414124 0.0003422761 -5.395285e-06    618.0000    284.9970  65.8159253  -1.3463071  65.8159253  -1.3463071
       207  0.000585608 6.915021e-05   0.00345027 0.0002766008   0.00345027 0.0002766008 -1.129945e-06   1061.5006    284.4933  65.8109961  -1.3463127  65.8109961  -1.3463127
       208 0.0006712259 7.469076e-05  0.004200295 0.0003130909  0.004200295 0.0003130909 -1.099034e-06   1076.1342    283.2943  65.8108335  -1.3463260  65.8108335  -1.3463260
       209  0.001177585 9.779316e-05  0.005604909 0.0003766412  0.005604909 0.0003766412 1.016045e-06    707.1429    279.0971  65.8149345  -1.3463727  65.8149345  -1.3463727
       210   0.00171246 0.0001197717  0.009891396 0.0005159304  0.009891396 0.0005159304 2.422141e-07    470.5039    276.1127  65.8175646  -1.3464058  65.8175646  -1.3464058
       211  0.003194401 0.0001646104    0.0307867 0.0008426684    0.0307867 0.0008426684 -4.947123e-07    548.9808    267.7317  65.8166924  -1.3464990  65.8166924  -1.3464990
       212  0.003286127 0.0001546246  0.009477864 0.0005128317  0.009477864 0.0005128317 1.646812e-07    630.0619    251.6840  65.8157912  -1.3466773  65.8157912  -1.3466773
       213 0.0007869502 7.984778e-05  0.005693649  0.000330429  0.005693649  0.000330429 -1.162144e-05     21.2446    251.8806  65.8225577  -1.3466751  65.8225577  -1.3466751
       214 0.0003657529 5.646091e-05   0.00331619 0.0002461074   0.00331619 0.0002461074 -9.15485e-06     46.9997    250.4996  65.8222715  -1.3466904  65.8222715  -1.3466904
       215  0.001591558 0.0001163971   0.01181663 0.0005190106   0.01181663 0.0005190106 -1.185817e-06    467.3097    248.3157  65.8176001  -1.3467147  65.8176001  -1.3467147
       216 0.0003719275 5.646091e-05  0.004629022 0.0002525008  0.004629022 0.0002525008 -3.385245e-06    626.4981   1240.5032  65.8158308  -1.3356904  65.8158308  -1.3356904
       217  0.001032069 9.362982e-05   0.01103289 0.0004234568   0.01103289 0.0004234568 -1.938343e-06   1166.1755   1238.1888  65.8098328  -1.3357161  65.8098328  -1.3357161
       218  0.002859555 0.0001493815   0.01521911 0.0005273884   0.01521911 0.0005273884 -9.875687e-07    587.1434   1229.7157  65.8162682  -1.3358102  65.8162682  -1.3358102
       219  0.001850127 0.0001230537   0.01356692 0.0005251168   0.01356692 0.0005251168 -3.860715e-06   1101.9473   1208.3600  65.8105466  -1.3360475  65.8105466  -1.3360475
       220 0.0002872962 4.889658e-05  0.003355274 0.0002074506  0.003355274 0.0002074506 -8.857921e-07    130.6670    955.6729  65.8213416  -1.3388552  65.8213416  -1.3388552
       221  0.000359837 5.646091e-05  0.003678456 0.0002525008  0.003678456 0.0002525008 1.220587e-06    434.0036    958.5040  65.8179703  -1.3388237  65.8179703  -1.3388237
       222  0.001379773 0.0001093361   0.00840411 0.0003659085   0.00840411 0.0003659085 1.378313e-06    905.9969    970.2790  65.8127244  -1.3386929  65.8127244  -1.3386929
       223  0.001828171 0.0001197717  0.008835323 0.0004638737  0.008835323 0.0004638737 -7.097955e-06   1128.1389    982.7314  65.8102555  -1.3385545  65.8102555  -1.3385545
       224 0.0003854681 5.646091e-05  0.002988747 0.0002461074  0.002988747 0.0002461074 3.396985e-07    840.4977    984.5158  65.8134524  -1.3385347  65.8134524  -1.3385347
       225 0.0002744684 4.889658e-05  0.003034657 0.0002074506  0.003034657 0.0002074506 -4.185536e-06    199.3322   1188.6638  65.8205784  -1.3362664  65.8205784  -1.3362664
       226  0.001624922 0.0001129218   0.00924455  0.000457821   0.00924455  0.000457821 -1.233277e-06    402.1749   1174.8094  65.8183240  -1.3364203  65.8183240  -1.3364203
       227 0.0007561196 7.984778e-05  0.009297592 0.0003648179  0.009297592 0.0003648179 5.834624e-06    510.7409   1184.6338  65.8171174  -1.3363112  65.8171174  -1.3363112
       228 0.0005723228 6.915021e-05  0.004341239 0.0002947346  0.004341239 0.0002947346 5.897637e-06    556.1669   1055.1741  65.8166125  -1.3377496  65.8166125  -1.3377496
       229  0.002213757 0.0001324126   0.01072713 0.0005073634   0.01072713 0.0005073634  2.58985e-06    716.2285    987.7432  65.8148336  -1.3384988  65.8148336  -1.3384988
       230 0.0003981348 5.646091e-05  0.003668049 0.0002461074  0.003668049 0.0002461074 -8.688176e-06   1161.4945    997.4933  65.8098848  -1.3383905  65.8098848  -1.3383905
       231 0.0003946012 5.646091e-05  0.004045573 0.0002493246  0.004045573 0.0002493246 6.407738e-06    596.4984   1094.0015  65.8161643  -1.3373182  65.8161643  -1.3373182
       232 0.0007615667 7.984778e-05  0.007017637 0.0003525983  0.007017637 0.0003525983 6.616712e-06    594.5053   1164.4904  65.8161864  -1.3365350  65.8161864  -1.3365350
       233 0.0005979024 6.915021e-05  0.003452541  0.000270777  0.003452541  0.000270777 -8.438929e-06   1147.9780    994.5069  65.8100350  -1.3384237  65.8100350  -1.3384237
       234 0.0003818325 5.646091e-05  0.003800208 0.0002461074  0.003800208 0.0002461074 -1.684699e-06    793.4901   1156.4988  65.8139749  -1.3366238  65.8139749  -1.3366238
       235  0.001985898 0.0001197717  0.007213721 0.0004355182  0.007213721 0.0004355182 6.616712e-06    547.0274   1150.5056  65.8167141  -1.3366904  65.8167141  -1.3366904
       236  0.002827196 0.0001466897  0.007094008 0.0004534482  0.007094008 0.0004534482 4.252157e-06    639.3981   1081.6174  65.8156875  -1.3374558  65.8156875  -1.3374558
       237  0.002087204 0.0001324126   0.01253086 0.0005730156   0.01253086 0.0005730156 2.210297e-06    437.7911   1072.3064  65.8179282  -1.3375592  65.8179282  -1.3375592
       238 0.0002731948 4.889658e-05  0.003083236 0.0002074506  0.003083236 0.0002074506 -1.680317e-06     62.6699   1075.3392  65.8220973  -1.3375255  65.8220973  -1.3375255
       239 0.0006760291 7.469076e-05  0.004524678 0.0003130909  0.004524678 0.0003130909  9.16718e-07   1022.4359   1124.7064  65.8114303  -1.3369770  65.8114303  -1.3369770
       240  0.000479861 6.312521e-05  0.003567914 0.0002633161  0.003567914 0.0002633161 -8.810507e-07     82.8036   1121.3948  65.8218735  -1.3370138  65.8218735  -1.3370138
       241 0.0003841916 5.646091e-05  0.004437298 0.0002633161  0.004437298 0.0002633161 -9.103335e-06   1231.9817   1099.7560  65.8091014  -1.3372542  65.8091014  -1.3372542
       242   0.00140559 0.0001093361   0.01183756 0.0004774203   0.01183756 0.0004774203 2.466477e-06    938.3513   1097.5333  65.8123649  -1.3372789  65.8123649  -1.3372789
       243  0.001568602 0.0001093361  0.004681645 0.0003648179  0.004681645 0.0003648179 6.246338e-06    507.2235   1102.6093  65.8171565  -1.3372225  65.8171565  -1.3372225
       244 0.0004533219 6.312521e-05  0.005878655 0.0003000938  0.005878655 0.0003000938 -1.756599e-06    321.7990   1089.7999  65.8192173  -1.3373649  65.8192173  -1.3373649
       245 0.0004829348 6.312521e-05  0.004373135 0.0002722446  0.004373135 0.0002722446 -4.127083e-07    839.8046   1100.3944  65.8134601  -1.3372471  65.8134601  -1.3372471
       246  0.004175201 0.0001872596    0.0248434 0.0007399395    0.0248434 0.0007399395 6.175172e-06    544.6766   1083.6675  65.8167402  -1.3374330  65.8167402  -1.3374330
       247  0.003802002 0.0001717191   0.01167787 0.0006312521   0.01167787 0.0006312521 3.620839e-06    647.9933   1081.6898  65.8155919  -1.3374550  65.8155919  -1.3374550
       248  0.000910601 8.469136e-05  0.006356228 0.0003525983  0.006356228 0.0003525983 -1.005357e-05   1228.3225   1005.1144  65.8091421  -1.3383058  65.8091421  -1.3383058
       249 0.0006650381 7.469076e-05  0.006435129 0.0003243432  0.006435129 0.0003243432 3.744938e-06    909.9970   1057.2864  65.8126800  -1.3377261  65.8126800  -1.3377261
       250   0.00097538 9.362982e-05   0.00680033 0.0003243432   0.00680033 0.0003243432 6.307717e-07    392.0031   1063.7509  65.8184370  -1.3376543  65.8184370  -1.3376543
       251 0.0004698691 6.312521e-05   0.00581568 0.0002851136   0.00581568 0.0002851136 -2.130351e-06   1111.4019   1078.2172  65.8104416  -1.3374936  65.8104416  -1.3374936
       252    0.0033753 0.0001596956  0.007704193 0.0004481446  0.007704193 0.0004481446 6.113564e-06    592.9358   1058.4556  65.8162039  -1.3377131  65.8162039  -1.3377131
       253   0.00124808 9.779316e-05  0.005440959 0.0003870765  0.005440959 0.0003870765 5.456076e-06    621.1528    999.9117  65.8158902  -1.3383636  65.8158902  -1.3383636
       254  0.001896331 0.0001230537  0.007939085 0.0004612894  0.007939085 0.0004612894 2.622746e-06    268.8383   1052.1633  65.8198059  -1.3377830  65.8198059  -1.3377830
       255 0.0003740614 5.646091e-05  0.004210455 0.0002648251  0.004210455 0.0002648251 2.828187e-06    895.0074   1049.7566  65.8128466  -1.3378098  65.8128466  -1.3378098
       256 0.0003714315 5.646091e-05  0.004264721 0.0002525008  0.004264721 0.0002525008 -8.631094e-06   1169.4951   1005.4937  65.8097959  -1.3383016  65.8097959  -1.3383016
       257 0.0008954088 8.469136e-05  0.004490644 0.0003387654  0.004490644 0.0003387654 5.837748e-06    582.3237   1033.1129  65.8163218  -1.3379947  65.8163218  -1.3379947
       258  0.002345885 0.0001324126   0.01094782 0.0005326511   0.01094782 0.0005326511  3.61608e-06    967.8967   1005.1015  65.8120365  -1.3383060  65.8120365  -1.3383060
       259 0.0003694325 5.646091e-05  0.004733507 0.0002525008  0.004733507 0.0002525008 3.291274e-07   1067.4968   1006.4905  65.8109295  -1.3382905  65.8109295  -1.3382905
       260 0.0007573274 7.984778e-05  0.005179751 0.0003559725  0.005179751 0.0003559725 5.490073e-06    632.4874   1019.0010  65.8157643  -1.3381515  65.8157643  -1.3381515
